# Macroscopic dielectric function obtained with the BS equation.
#  RPA L0 with KS energies and KS wavefunctions     LOCAL FIELD EFFECTS INCLUDED
# RESONANT-ONLY calculation
# Coulomb term constructed with full W(G1,G2)
# Scissor operator energy =  0.8000 [eV]
# nstates included in the diagonalization = 96
# npweps  = 113
# npwwfn  = 259
# nbands  = 8
# loband  = 2
# nkibz   = 3
# nkbz    = 8
# Lorentzian broadening =  0.0000 [eV]
# List of q-points for the optical limit:
# q =  0.938821, 0.000000, 0.000000, [Reduced coords] 
# q =  0.000000, 0.938821, 0.000000, [Reduced coords] 
# q =  0.000000, 0.000000, 0.938821, [Reduced coords] 
# q =  0.000000, 0.813043, 0.813043, [Reduced coords] 
# q =  0.813043, 0.000000, 0.813043, [Reduced coords] 
# q =  0.813043, 0.813043, 0.000000, [Reduced coords] 
# omega [eV]    RE(eps(q=1)) IM(eps(q=1) RE(eps(q=2) ) ... DOS   IDOS
  0.000   54.7775    0.1283   54.7664    0.1549   54.7726    0.1531   54.7676    0.1168   54.8131    0.1577   54.8107    0.1607    0.0000    0.0000
  0.010   54.7781    0.1308   54.7669    0.1574   54.7732    0.1556   54.7682    0.1192   54.8136    0.1603   54.8113    0.1633    0.0000    0.0000
  0.020   54.7797    0.1332   54.7685    0.1600   54.7748    0.1581   54.7698    0.1217   54.8152    0.1629   54.8129    0.1660    0.0000    0.0000
  0.030   54.7824    0.1356   54.7712    0.1625   54.7775    0.1607   54.7725    0.1242   54.8179    0.1656   54.8156    0.1686    0.0000    0.0000
  0.040   54.7861    0.1381   54.7749    0.1650   54.7812    0.1632   54.7762    0.1267   54.8217    0.1682   54.8193    0.1713    0.0000    0.0000
  0.050   54.7909    0.1406   54.7797    0.1676   54.7860    0.1657   54.7810    0.1292   54.8265    0.1709   54.8241    0.1739    0.0000    0.0000
  0.060   54.7968    0.1430   54.7855    0.1701   54.7919    0.1683   54.7869    0.1317   54.8323    0.1736   54.8300    0.1766    0.0000    0.0000
  0.070   54.8038    0.1455   54.7925    0.1727   54.7989    0.1709   54.7939    0.1342   54.8393    0.1762   54.8370    0.1793    0.0000    0.0000
  0.080   54.8118    0.1480   54.8005    0.1752   54.8069    0.1734   54.8019    0.1367   54.8473    0.1789   54.8450    0.1820    0.0000    0.0000
  0.090   54.8209    0.1505   54.8096    0.1778   54.8160    0.1760   54.8110    0.1392   54.8564    0.1816   54.8541    0.1847    0.0000    0.0000
  0.100   54.8311    0.1530   54.8197    0.1804   54.8262    0.1786   54.8211    0.1418   54.8666    0.1844   54.8643    0.1874    0.0000    0.0000
  0.110   54.8423    0.1555   54.8309    0.1830   54.8374    0.1812   54.8324    0.1443   54.8779    0.1871   54.8755    0.1901    0.0000    0.0000
  0.120   54.8546    0.1580   54.8432    0.1856   54.8498    0.1839   54.8447    0.1469   54.8902    0.1898   54.8879    0.1928    0.0000    0.0000
  0.130   54.8680    0.1606   54.8566    0.1883   54.8632    0.1865   54.8581    0.1495   54.9036    0.1926   54.9013    0.1956    0.0000    0.0000
  0.140   54.8825    0.1631   54.8711    0.1909   54.8776    0.1891   54.8726    0.1520   54.9181    0.1954   54.9158    0.1983    0.0000    0.0000
  0.150   54.8981    0.1657   54.8866    0.1936   54.8932    0.1918   54.8881    0.1546   54.9337    0.1981   54.9314    0.2011    0.0000    0.0000
  0.160   54.9147    0.1683   54.9032    0.1962   54.9098    0.1945   54.9048    0.1572   54.9503    0.2009   54.9480    0.2039    0.0000    0.0000
  0.170   54.9324    0.1709   54.9209    0.1989   54.9275    0.1972   54.9225    0.1599   54.9681    0.2037   54.9658    0.2067    0.0000    0.0000
  0.180   54.9512    0.1735   54.9397    0.2016   54.9464    0.1999   54.9413    0.1625   54.9869    0.2066   54.9846    0.2095    0.0000    0.0000
  0.190   54.9711    0.1761   54.9596    0.2043   54.9663    0.2026   54.9612    0.1651   55.0068    0.2094   55.0045    0.2124    0.0000    0.0000
  0.200   54.9921    0.1787   54.9805    0.2071   54.9872    0.2053   54.9822    0.1678   55.0278    0.2122   55.0256    0.2152    0.0000    0.0000
  0.210   55.0142    0.1813   55.0026    0.2098   55.0093    0.2080   55.0042    0.1704   55.0499    0.2151   55.0477    0.2181    0.0000    0.0000
  0.220   55.0374    0.1840   55.0258    0.2126   55.0325    0.2108   55.0274    0.1731   55.0732    0.2180   55.0709    0.2210    0.0000    0.0000
  0.230   55.0617    0.1866   55.0500    0.2153   55.0568    0.2136   55.0517    0.1758   55.0975    0.2209   55.0952    0.2238    0.0000    0.0000
  0.240   55.0871    0.1893   55.0754    0.2181   55.0822    0.2164   55.0771    0.1785   55.1229    0.2238   55.1206    0.2268    0.0000    0.0000
  0.250   55.1135    0.1920   55.1018    0.2209   55.1087    0.2192   55.1036    0.1812   55.1494    0.2267   55.1472    0.2297    0.0000    0.0000
  0.260   55.1412    0.1947   55.1294    0.2237   55.1363    0.2220   55.1312    0.1840   55.1771    0.2297   55.1748    0.2326    0.0000    0.0000
  0.270   55.1699    0.1974   55.1581    0.2266   55.1650    0.2248   55.1599    0.1867   55.2058    0.2327   55.2036    0.2356    0.0000    0.0000
  0.280   55.1997    0.2002   55.1879    0.2294   55.1948    0.2277   55.1897    0.1895   55.2357    0.2356   55.2334    0.2386    0.0000    0.0000
  0.290   55.2306    0.2029   55.2188    0.2323   55.2257    0.2305   55.2206    0.1923   55.2667    0.2386   55.2644    0.2416    0.0000    0.0000
  0.300   55.2627    0.2057   55.2509    0.2352   55.2578    0.2334   55.2527    0.1950   55.2988    0.2417   55.2966    0.2446    0.0000    0.0000
  0.310   55.2959    0.2085   55.2840    0.2381   55.2910    0.2363   55.2859    0.1979   55.3321    0.2447   55.3298    0.2476    0.0000    0.0000
  0.320   55.3303    0.2113   55.3183    0.2410   55.3254    0.2393   55.3202    0.2007   55.3665    0.2478   55.3642    0.2507    0.0000    0.0000
  0.330   55.3657    0.2141   55.3538    0.2440   55.3608    0.2422   55.3557    0.2035   55.4020    0.2508   55.3997    0.2538    0.0000    0.0000
  0.340   55.4024    0.2170   55.3904    0.2469   55.3974    0.2452   55.3923    0.2064   55.4387    0.2539   55.4364    0.2569    0.0000    0.0000
  0.350   55.4401    0.2198   55.4281    0.2499   55.4352    0.2482   55.4301    0.2093   55.4765    0.2571   55.4742    0.2600    0.0000    0.0000
  0.360   55.4790    0.2227   55.4670    0.2529   55.4741    0.2512   55.4690    0.2122   55.5154    0.2602   55.5132    0.2631    0.0000    0.0000
  0.370   55.5191    0.2256   55.5070    0.2560   55.5142    0.2542   55.5090    0.2151   55.5556    0.2634   55.5534    0.2663    0.0000    0.0000
  0.380   55.5603    0.2285   55.5482    0.2590   55.5554    0.2573   55.5503    0.2181   55.5969    0.2666   55.5947    0.2695    0.0000    0.0000
  0.390   55.6027    0.2315   55.5906    0.2621   55.5978    0.2603   55.5927    0.2210   55.6393    0.2698   55.6371    0.2727    0.0000    0.0000
  0.400   55.6463    0.2344   55.6341    0.2652   55.6413    0.2634   55.6362    0.2240   55.6830    0.2730   55.6808    0.2759    0.0000    0.0000
  0.410   55.6911    0.2374   55.6788    0.2683   55.6861    0.2666   55.6810    0.2270   55.7278    0.2763   55.7256    0.2792    0.0000    0.0000
  0.420   55.7370    0.2404   55.7247    0.2714   55.7320    0.2697   55.7269    0.2300   55.7738    0.2796   55.7716    0.2825    0.0000    0.0000
  0.430   55.7841    0.2434   55.7718    0.2746   55.7791    0.2729   55.7740    0.2331   55.8210    0.2829   55.8188    0.2858    0.0000    0.0000
  0.440   55.8324    0.2465   55.8201    0.2778   55.8274    0.2760   55.8223    0.2361   55.8694    0.2862   55.8672    0.2891    0.0000    0.0000
  0.450   55.8820    0.2496   55.8696    0.2810   55.8769    0.2793   55.8718    0.2392   55.9190    0.2895   55.9168    0.2924    0.0000    0.0000
  0.460   55.9327    0.2526   55.9202    0.2842   55.9277    0.2825   55.9225    0.2423   55.9698    0.2929   55.9676    0.2958    0.0000    0.0000
  0.470   55.9846    0.2558   55.9722    0.2875   55.9796    0.2858   55.9745    0.2455   56.0218    0.2963   56.0196    0.2992    0.0000    0.0000
  0.480   56.0378    0.2589   56.0253    0.2908   56.0327    0.2891   56.0276    0.2486   56.0751    0.2998   56.0729    0.3027    0.0000    0.0000
  0.490   56.0922    0.2621   56.0796    0.2941   56.0871    0.2924   56.0820    0.2518   56.1296    0.3032   56.1274    0.3061    0.0000    0.0000
  0.500   56.1478    0.2653   56.1352    0.2974   56.1428    0.2957   56.1376    0.2550   56.1853    0.3067   56.1831    0.3096    0.0000    0.0000
  0.510   56.2047    0.2685   56.1921    0.3008   56.1996    0.2991   56.1945    0.2582   56.2423    0.3103   56.2401    0.3131    0.0000    0.0000
  0.520   56.2628    0.2717   56.2501    0.3042   56.2577    0.3025   56.2526    0.2615   56.3005    0.3138   56.2983    0.3167    0.0000    0.0000
  0.530   56.3222    0.2750   56.3095    0.3076   56.3171    0.3059   56.3120    0.2648   56.3600    0.3174   56.3578    0.3203    0.0000    0.0000
  0.540   56.3829    0.2783   56.3701    0.3111   56.3778    0.3094   56.3726    0.2681   56.4207    0.3210   56.4186    0.3239    0.0000    0.0000
  0.550   56.4448    0.2816   56.4320    0.3146   56.4397    0.3129   56.4346    0.2714   56.4828    0.3246   56.4806    0.3275    0.0000    0.0000
  0.560   56.5080    0.2849   56.4952    0.3181   56.5029    0.3164   56.4978    0.2748   56.5461    0.3283   56.5439    0.3312    0.0000    0.0000
  0.570   56.5725    0.2883   56.5596    0.3216   56.5674    0.3199   56.5623    0.2782   56.6107    0.3320   56.6085    0.3349    0.0000    0.0000
  0.580   56.6384    0.2917   56.6254    0.3252   56.6332    0.3235   56.6281    0.2816   56.6766    0.3358   56.6745    0.3386    0.0000    0.0000
  0.590   56.7055    0.2952   56.6925    0.3288   56.7003    0.3271   56.6952    0.2851   56.7439    0.3395   56.7417    0.3424    0.0000    0.0000
  0.600   56.7739    0.2986   56.7609    0.3325   56.7687    0.3307   56.7636    0.2886   56.8124    0.3433   56.8103    0.3462    0.0000    0.0000
  0.610   56.8437    0.3021   56.8306    0.3361   56.8385    0.3344   56.8334    0.2921   56.8823    0.3472   56.8802    0.3500    0.0000    0.0000
  0.620   56.9148    0.3057   56.9016    0.3398   56.9096    0.3381   56.9045    0.2956   56.9536    0.3511   56.9514    0.3539    0.0000    0.0000
  0.630   56.9873    0.3092   56.9741    0.3436   56.9820    0.3419   56.9769    0.2992   57.0262    0.3550   57.0240    0.3578    0.0000    0.0000
  0.640   57.0611    0.3128   57.0478    0.3474   57.0558    0.3457   57.0507    0.3028   57.1001    0.3589   57.0979    0.3618    0.0000    0.0000
  0.650   57.1363    0.3165   57.1230    0.3512   57.1310    0.3495   57.1259    0.3065   57.1754    0.3629   57.1733    0.3658    0.0000    0.0000
  0.660   57.2129    0.3201   57.1995    0.3550   57.2076    0.3533   57.2025    0.3101   57.2521    0.3669   57.2500    0.3698    0.0000    0.0000
  0.670   57.2908    0.3238   57.2774    0.3589   57.2855    0.3572   57.2804    0.3139   57.3302    0.3710   57.3281    0.3738    0.0000    0.0000
  0.680   57.3702    0.3276   57.3567    0.3628   57.3648    0.3611   57.3598    0.3176   57.4097    0.3751   57.4076    0.3779    0.0000    0.0000
  0.690   57.4510    0.3313   57.4374    0.3668   57.4456    0.3651   57.4406    0.3214   57.4907    0.3792   57.4885    0.3821    0.0000    0.0000
  0.700   57.5332    0.3351   57.5196    0.3708   57.5278    0.3691   57.5228    0.3252   57.5730    0.3834   57.5709    0.3863    0.0000    0.0000
  0.710   57.6168    0.3390   57.6032    0.3749   57.6114    0.3732   57.6064    0.3291   57.6568    0.3877   57.6546    0.3905    0.0000    0.0000
  0.720   57.7019    0.3429   57.6882    0.3789   57.6965    0.3773   57.6915    0.3330   57.7421    0.3919   57.7399    0.3948    0.0000    0.0000
  0.730   57.7885    0.3468   57.7747    0.3831   57.7830    0.3814   57.7780    0.3369   57.8288    0.3962   57.8266    0.3991    0.0000    0.0000
  0.740   57.8765    0.3508   57.8627    0.3872   57.8710    0.3855   57.8660    0.3409   57.9170    0.4006   57.9148    0.4034    0.0000    0.0000
  0.750   57.9660    0.3548   57.9521    0.3915   57.9605    0.3898   57.9555    0.3449   58.0066    0.4050   58.0045    0.4078    0.0000    0.0000
  0.760   58.0571    0.3588   58.0431    0.3957   58.0515    0.3940   58.0465    0.3490   58.0978    0.4094   58.0957    0.4123    0.0000    0.0000
  0.770   58.1496    0.3629   58.1356    0.4000   58.1440    0.3983   58.1391    0.3531   58.1905    0.4139   58.1884    0.4168    0.0000    0.0000
  0.780   58.2437    0.3670   58.2296    0.4044   58.2381    0.4027   58.2331    0.3572   58.2848    0.4185   58.2826    0.4213    0.0000    0.0000
  0.790   58.3393    0.3712   58.3251    0.4088   58.3337    0.4071   58.3287    0.3614   58.3805    0.4231   58.3784    0.4259    0.0000    0.0000
  0.800   58.4364    0.3754   58.4222    0.4132   58.4308    0.4115   58.4259    0.3656   58.4779    0.4277   58.4757    0.4305    0.0000    0.0000
  0.810   58.5352    0.3797   58.5209    0.4177   58.5295    0.4160   58.5246    0.3699   58.5768    0.4324   58.5746    0.4352    0.0000    0.0000
  0.820   58.6355    0.3840   58.6211    0.4222   58.6298    0.4205   58.6249    0.3742   58.6773    0.4371   58.6751    0.4400    0.0000    0.0000
  0.830   58.7374    0.3883   58.7230    0.4268   58.7317    0.4251   58.7268    0.3786   58.7794    0.4419   58.7772    0.4448    0.0000    0.0000
  0.840   58.8410    0.3927   58.8264    0.4315   58.8352    0.4298   58.8303    0.3830   58.8831    0.4468   58.8810    0.4496    0.0000    0.0000
  0.850   58.9461    0.3972   58.9315    0.4361   58.9404    0.4345   58.9355    0.3875   58.9885    0.4517   58.9863    0.4545    0.0000    0.0000
  0.860   59.0530    0.4017   59.0383    0.4409   59.0472    0.4392   59.0423    0.3920   59.0955    0.4566   59.0934    0.4595    0.0000    0.0000
  0.870   59.1615    0.4062   59.1467    0.4457   59.1556    0.4440   59.1508    0.3965   59.2042    0.4616   59.2021    0.4645    0.0000    0.0000
  0.880   59.2716    0.4108   59.2568    0.4505   59.2658    0.4489   59.2609    0.4012   59.3146    0.4667   59.3124    0.4695    0.0000    0.0000
  0.890   59.3835    0.4155   59.3686    0.4554   59.3776    0.4538   59.3728    0.4058   59.4267    0.4718   59.4245    0.4747    0.0000    0.0000
  0.900   59.4971    0.4202   59.4822    0.4604   59.4912    0.4587   59.4864    0.4106   59.5405    0.4770   59.5383    0.4799    0.0000    0.0000
  0.910   59.6125    0.4250   59.5974    0.4654   59.6065    0.4638   59.6017    0.4153   59.6561    0.4823   59.6539    0.4851    0.0000    0.0000
  0.920   59.7296    0.4298   59.7144    0.4705   59.7236    0.4688   59.7188    0.4202   59.7734    0.4876   59.7712    0.4904    0.0000    0.0000
  0.930   59.8484    0.4347   59.8332    0.4757   59.8424    0.4740   59.8377    0.4251   59.8925    0.4930   59.8903    0.4958    0.0000    0.0000
  0.940   59.9691    0.4396   59.9538    0.4809   59.9631    0.4792   59.9583    0.4300   60.0134    0.4984   60.0112    0.5012    0.0000    0.0000
  0.950   60.0916    0.4446   60.0762    0.4861   60.0855    0.4845   60.0808    0.4350   60.1361    0.5039   60.1339    0.5067    0.0000    0.0000
  0.960   60.2159    0.4497   60.2004    0.4915   60.2098    0.4898   60.2051    0.4401   60.2606    0.5095   60.2585    0.5123    0.0000    0.0000
  0.970   60.3421    0.4548   60.3265    0.4969   60.3359    0.4952   60.3312    0.4452   60.3870    0.5151   60.3849    0.5179    0.0000    0.0000
  0.980   60.4701    0.4600   60.4545    0.5023   60.4639    0.5007   60.4593    0.4504   60.5153    0.5208   60.5132    0.5236    0.0000    0.0000
  0.990   60.6001    0.4652   60.5844    0.5079   60.5938    0.5062   60.5892    0.4557   60.6455    0.5266   60.6434    0.5294    0.0000    0.0000
  1.000   60.7319    0.4705   60.7161    0.5135   60.7257    0.5118   60.7211    0.4610   60.7776    0.5325   60.7755    0.5353    0.0000    0.0000
  1.010   60.8658    0.4759   60.8499    0.5192   60.8595    0.5175   60.8549    0.4664   60.9117    0.5384   60.9095    0.5412    0.0000    0.0000
  1.020   61.0015    0.4813   60.9855    0.5249   60.9952    0.5232   60.9906    0.4719   61.0477    0.5444   61.0456    0.5472    0.0000    0.0000
  1.030   61.1393    0.4868   61.1232    0.5307   61.1329    0.5290   61.1284    0.4774   61.1858    0.5505   61.1836    0.5533    0.0000    0.0000
  1.040   61.2791    0.4924   61.2629    0.5366   61.2727    0.5349   61.2682    0.4830   61.3258    0.5566   61.3237    0.5594    0.0000    0.0000
  1.050   61.4209    0.4981   61.4046    0.5426   61.4144    0.5409   61.4100    0.4887   61.4679    0.5629   61.4658    0.5657    0.0000    0.0000
  1.060   61.5648    0.5038   61.5484    0.5486   61.5583    0.5470   61.5538    0.4944   61.6121    0.5692   61.6099    0.5720    0.0000    0.0000
  1.070   61.7108    0.5096   61.6943    0.5548   61.7042    0.5531   61.6998    0.5002   61.7584    0.5756   61.7562    0.5784    0.0000    0.0000
  1.080   61.8589    0.5155   61.8423    0.5610   61.8523    0.5593   61.8479    0.5061   61.9067    0.5821   61.9046    0.5849    0.0000    0.0000
  1.090   62.0091    0.5215   61.9924    0.5673   62.0025    0.5656   61.9981    0.5121   62.0573    0.5887   62.0551    0.5915    0.0000    0.0000
  1.100   62.1615    0.5275   62.1447    0.5736   62.1548    0.5720   62.1505    0.5182   62.2100    0.5953   62.2078    0.5981    0.0000    0.0000
  1.110   62.3161    0.5336   62.2992    0.5801   62.3094    0.5784   62.3051    0.5243   62.3649    0.6021   62.3627    0.6049    0.0000    0.0000
  1.120   62.4729    0.5398   62.4559    0.5867   62.4662    0.5850   62.4619    0.5305   62.5220    0.6089   62.5198    0.6117    0.0000    0.0000
  1.130   62.6320    0.5461   62.6149    0.5933   62.6252    0.5916   62.6209    0.5368   62.6814    0.6159   62.6792    0.6187    0.0000    0.0000
  1.140   62.7934    0.5525   62.7762    0.6000   62.7865    0.5984   62.7823    0.5432   62.8431    0.6229   62.8409    0.6257    0.0000    0.0000
  1.150   62.9571    0.5590   62.9397    0.6069   62.9501    0.6052   62.9460    0.5497   63.0071    0.6301   63.0049    0.6328    0.0000    0.0000
  1.160   63.1231    0.5655   63.1057    0.6138   63.1161    0.6121   63.1120    0.5563   63.1735    0.6373   63.1713    0.6401    0.0000    0.0000
  1.170   63.2915    0.5722   63.2740    0.6208   63.2845    0.6191   63.2804    0.5630   63.3422    0.6446   63.3401    0.6474    0.0000    0.0000
  1.180   63.4623    0.5789   63.4447    0.6279   63.4553    0.6263   63.4512    0.5697   63.5134    0.6521   63.5112    0.6549    0.0000    0.0000
  1.190   63.6356    0.5858   63.6178    0.6352   63.6285    0.6335   63.6245    0.5766   63.6870    0.6596   63.6848    0.6624    0.0000    0.0000
  1.200   63.8114    0.5927   63.7934    0.6425   63.8042    0.6408   63.8002    0.5836   63.8631    0.6673   63.8609    0.6701    0.0000    0.0000
  1.210   63.9896    0.5998   63.9716    0.6499   63.9824    0.6482   63.9784    0.5906   64.0417    0.6750   64.0396    0.6778    0.0000    0.0000
  1.220   64.1704    0.6069   64.1523    0.6575   64.1631    0.6558   64.1592    0.5978   64.2229    0.6829   64.2208    0.6857    0.0000    0.0000
  1.230   64.3538    0.6142   64.3355    0.6651   64.3465    0.6634   64.3426    0.6051   64.4067    0.6909   64.4045    0.6937    0.0000    0.0000
  1.240   64.5399    0.6215   64.5214    0.6729   64.5324    0.6712   64.5286    0.6124   64.5931    0.6990   64.5909    0.7018    0.0000    0.0000
  1.250   64.7285    0.6290   64.7100    0.6808   64.7210    0.6791   64.7173    0.6199   64.7822    0.7073   64.7800    0.7101    0.0000    0.0000
  1.260   64.9199    0.6366   64.9012    0.6888   64.9124    0.6871   64.9087    0.6275   64.9740    0.7156   64.9718    0.7184    0.0000    0.0000
  1.270   65.1141    0.6443   65.0952    0.6969   65.1064    0.6952   65.1028    0.6353   65.1685    0.7241   65.1663    0.7269    0.0000    0.0000
  1.280   65.3110    0.6521   65.2920    0.7052   65.3033    0.7035   65.2997    0.6431   65.3658    0.7328   65.3636    0.7355    0.0000    0.0000
  1.290   65.5107    0.6600   65.4916    0.7135   65.5029    0.7118   65.4994    0.6511   65.5659    0.7415   65.5638    0.7443    0.0000    0.0000
  1.300   65.7133    0.6681   65.6940    0.7220   65.7055    0.7204   65.7020    0.6591   65.7690    0.7504   65.7668    0.7532    0.0000    0.0000
  1.310   65.9188    0.6762   65.8994    0.7307   65.9109    0.7290   65.9075    0.6673   65.9749    0.7594   65.9727    0.7622    0.0000    0.0000
  1.320   66.1273    0.6845   66.1077    0.7394   66.1193    0.7378   66.1160    0.6757   66.1838    0.7686   66.1816    0.7714    0.0000    0.0000
  1.330   66.3387    0.6930   66.3190    0.7483   66.3307    0.7467   66.3274    0.6841   66.3957    0.7779   66.3936    0.7807    0.0000    0.0000
  1.340   66.5532    0.7016   66.5334    0.7574   66.5451    0.7557   66.5419    0.6928   66.6107    0.7874   66.6085    0.7901    0.0000    0.0000
  1.350   66.7709    0.7103   66.7509    0.7666   66.7627    0.7649   66.7595    0.7015   66.8288    0.7970   66.8266    0.7997    0.0000    0.0000
  1.360   66.9916    0.7191   66.9715    0.7759   66.9833    0.7743   66.9803    0.7104   67.0500    0.8067   67.0478    0.8095    0.0000    0.0000
  1.370   67.2156    0.7281   67.1952    0.7854   67.2072    0.7838   67.2042    0.7194   67.2744    0.8167   67.2723    0.8194    0.0000    0.0000
  1.380   67.4428    0.7373   67.4223    0.7951   67.4343    0.7934   67.4314    0.7286   67.5021    0.8268   67.5000    0.8295    0.0000    0.0000
  1.390   67.6733    0.7466   67.6526    0.8049   67.6647    0.8032   67.6619    0.7379   67.7331    0.8370   67.7310    0.8398    0.0000    0.0000
  1.400   67.9071    0.7560   67.8863    0.8149   67.8985    0.8132   67.8958    0.7474   67.9675    0.8474   67.9653    0.8502    0.0000    0.0000
  1.410   68.1444    0.7656   68.1234    0.8250   68.1357    0.8233   68.1330    0.7570   68.2053    0.8580   68.2031    0.8608    0.0000    0.0000
  1.420   68.3851    0.7754   68.3640    0.8353   68.3764    0.8336   68.3738    0.7668   68.4465    0.8688   68.4444    0.8716    0.0000    0.0000
  1.430   68.6294    0.7853   68.6081    0.8458   68.6205    0.8441   68.6180    0.7768   68.6913    0.8798   68.6892    0.8825    0.0000    0.0000
  1.440   68.8772    0.7954   68.8557    0.8565   68.8683    0.8548   68.8659    0.7870   68.9397    0.8909   68.9376    0.8937    0.0000    0.0000
  1.450   69.1288    0.8057   69.1071    0.8673   69.1197    0.8656   69.1174    0.7973   69.1918    0.9023   69.1896    0.9050    0.0000    0.0000
  1.460   69.3840    0.8162   69.3621    0.8783   69.3748    0.8767   69.3726    0.8078   69.4476    0.9138   69.4454    0.9165    0.0000    0.0000
  1.470   69.6430    0.8268   69.6209    0.8896   69.6337    0.8879   69.6316    0.8185   69.7072    0.9255   69.7050    0.9283    0.0000    0.0000
  1.480   69.9058    0.8376   69.8835    0.9010   69.8964    0.8993   69.8944    0.8293   69.9706    0.9375   69.9684    0.9402    0.0000    0.0000
  1.490   70.1725    0.8486   70.1501    0.9126   70.1631    0.9109   70.1612    0.8404   70.2379    0.9496   70.2358    0.9524    0.0000    0.0000
  1.500   70.4433    0.8599   70.4206    0.9244   70.4337    0.9228   70.4319    0.8517   70.5093    0.9620   70.5071    0.9647    0.0000    0.0000
  1.510   70.7180    0.8713   70.6952    0.9365   70.7084    0.9348   70.7067    0.8631   70.7847    0.9746   70.7825    0.9773    0.0000    0.0000
  1.520   70.9969    0.8829   70.9739    0.9487   70.9872    0.9471   70.9856    0.8748   71.0642    0.9874   71.0620    0.9901    0.0000    0.0000
  1.530   71.2800    0.8947   71.2567    0.9612   71.2702    0.9595   71.2687    0.8867   71.3479    1.0005   71.3458    1.0032    0.0000    0.0000
  1.540   71.5674    0.9068   71.5439    0.9739   71.5574    0.9723   71.5561    0.8988   71.6360    1.0138   71.6338    1.0165    0.0000    0.0000
  1.550   71.8592    0.9191   71.8354    0.9869   71.8491    0.9852   71.8479    0.9112   71.9284    1.0273   71.9262    1.0300    0.0000    0.0000
  1.560   72.1553    0.9316   72.1314    1.0001   72.1451    0.9984   72.1441    0.9237   72.2253    1.0411   72.2231    1.0438    0.0000    0.0000
  1.570   72.4560    0.9443   72.4319    1.0135   72.4457    1.0118   72.4448    0.9365   72.5267    1.0551   72.5245    1.0579    0.0000    0.0000
  1.580   72.7614    0.9573   72.7369    1.0272   72.7509    1.0255   72.7501    0.9496   72.8327    1.0695   72.8306    1.0722    0.0000    0.0000
  1.590   73.0714    0.9705   73.0467    1.0411   73.0608    1.0395   73.0601    0.9629   73.1434    1.0841   73.1413    1.0867   -0.0000   -0.0000
  1.600   73.3862    0.9840   73.3613    1.0553   73.3755    1.0537   73.3750    0.9764   73.4590    1.0989   73.4568    1.1016   -0.0000   -0.0000
  1.610   73.7059    0.9977   73.6807    1.0698   73.6950    1.0682   73.6947    0.9902   73.7794    1.1141   73.7773    1.1168   -0.0000   -0.0000
  1.620   74.0305    1.0118   74.0051    1.0846   74.0196    1.0829   74.0194    1.0043   74.1049    1.1295   74.1027    1.1322   -0.0000   -0.0000
  1.630   74.3603    1.0260   74.3346    1.0996   74.3492    1.0980   74.3491    1.0187   74.4354    1.1453   74.4333    1.1480   -0.0000   -0.0000
  1.640   74.6952    1.0406   74.6693    1.1150   74.6839    1.1134   74.6841    1.0334   74.7711    1.1614   74.7690    1.1640   -0.0000   -0.0000
  1.650   75.0354    1.0555   75.0092    1.1307   75.0240    1.1290   75.0243    1.0483   75.1122    1.1777   75.1100    1.1804   -0.0000   -0.0000
  1.660   75.3810    1.0706   75.3546    1.1466   75.3695    1.1450   75.3700    1.0636   75.4586    1.1945   75.4565    1.1971   -0.0000   -0.0000
  1.670   75.7321    1.0861   75.7054    1.1629   75.7204    1.1613   75.7211    1.0791   75.8105    1.2115   75.8084    1.2142   -0.0000   -0.0000
  1.680   76.0888    1.1019   76.0618    1.1796   76.0770    1.1779   76.0778    1.0950   76.1681    1.2289   76.1660    1.2316   -0.0000   -0.0000
  1.690   76.4512    1.1180   76.4240    1.1965   76.4393    1.1949   76.4403    1.1112   76.5315    1.2467   76.5294    1.2493   -0.0000   -0.0000
  1.700   76.8196    1.1345   76.7920    1.2139   76.8074    1.2122   76.8087    1.1278   76.9007    1.2648   76.8986    1.2674   -0.0000   -0.0000
  1.710   77.1938    1.1513   77.1660    1.2315   77.1815    1.2299   77.1830    1.1447   77.2759    1.2833   77.2738    1.2859   -0.0000   -0.0000
  1.720   77.5742    1.1684   77.5461    1.2496   77.5617    1.2480   77.5635    1.1619   77.6572    1.3022   77.6552    1.3048   -0.0000   -0.0000
  1.730   77.9608    1.1859   77.9324    1.2680   77.9482    1.2664   77.9501    1.1795   78.0448    1.3215   78.0428    1.3241   -0.0000   -0.0000
  1.740   78.3538    1.2038   78.3250    1.2869   78.3410    1.2852   78.3432    1.1975   78.4388    1.3412   78.4368    1.3438   -0.0000   -0.0000
  1.750   78.7534    1.2221   78.7242    1.3061   78.7404    1.3045   78.7428    1.2159   78.8394    1.3614   78.8373    1.3639   -0.0000   -0.0000
  1.760   79.1595    1.2408   79.1301    1.3257   79.1463    1.3241   79.1490    1.2347   79.2466    1.3819   79.2445    1.3845   -0.0000   -0.0000
  1.770   79.5725    1.2598   79.5427    1.3458   79.5591    1.3442   79.5620    1.2540   79.6606    1.4030   79.6586    1.4055   -0.0000   -0.0000
  1.780   79.9924    1.2794   79.9623    1.3664   79.9789    1.3648   79.9820    1.2736   80.0816    1.4244   80.0796    1.4270   -0.0000   -0.0000
  1.790   80.4195    1.2993   80.3890    1.3873   80.4057    1.3858   80.4092    1.2937   80.5098    1.4464   80.5078    1.4490   -0.0000   -0.0000
  1.800   80.8538    1.3197   80.8230    1.4088   80.8399    1.4072   80.8436    1.3142   80.9452    1.4689   80.9432    1.4714   -0.0000   -0.0000
  1.810   81.2956    1.3405   81.2644    1.4307   81.2814    1.4292   81.2855    1.3352   81.3882    1.4919   81.3862    1.4944   -0.0000   -0.0000
  1.820   81.7450    1.3619   81.7134    1.4532   81.7306    1.4516   81.7349    1.3567   81.8388    1.5154   81.8368    1.5179   -0.0000   -0.0000
  1.830   82.2022    1.3837   82.1702    1.4761   82.1876    1.4746   82.1923    1.3787   82.2972    1.5394   82.2952    1.5419   -0.0000   -0.0000
  1.840   82.6674    1.4061   82.6350    1.4996   82.6526    1.4981   82.6575    1.4012   82.7636    1.5640   82.7617    1.5665   -0.0000   -0.0000
  1.850   83.1408    1.4289   83.1080    1.5237   83.1257    1.5221   83.1310    1.4243   83.2383    1.5892   83.2363    1.5917   -0.0000   -0.0000
  1.860   83.6226    1.4523   83.5894    1.5483   83.6073    1.5467   83.6129    1.4479   83.7213    1.6150   83.7194    1.6174   -0.0000   -0.0000
  1.870   84.1129    1.4763   84.0793    1.5735   84.0974    1.5719   84.1034    1.4720   84.2130    1.6413   84.2111    1.6438   -0.0000   -0.0000
  1.880   84.6120    1.5008   84.5780    1.5993   84.5962    1.5977   84.6026    1.4968   84.7135    1.6684   84.7116    1.6708   -0.0000   -0.0000
  1.890   85.1202    1.5260   85.0857    1.6257   85.1041    1.6242   85.1109    1.5221   85.2230    1.6961   85.2211    1.6985   -0.0000   -0.0000
  1.900   85.6375    1.5518   85.6026    1.6528   85.6212    1.6513   85.6284    1.5481   85.7418    1.7244   85.7400    1.7268   -0.0000   -0.0000
  1.910   86.1644    1.5782   86.1290    1.6805   86.1478    1.6790   86.1554    1.5748   86.2702    1.7535   86.2683    1.7559   -0.0000   -0.0000
  1.920   86.7010    1.6052   86.6651    1.7089   86.6841    1.7074   86.6921    1.6021   86.8082    1.7833   86.8064    1.7857   -0.0000   -0.0000
  1.930   87.2475    1.6330   87.2111    1.7381   87.2304    1.7366   87.2388    1.6301   87.3563    1.8138   87.3545    1.8162   -0.0000   -0.0000
  1.940   87.8043    1.6615   87.7674    1.7680   87.7868    1.7665   87.7957    1.6588   87.9146    1.8451   87.9128    1.8475   -0.0000   -0.0000
  1.950   88.3715    1.6907   88.3341    1.7986   88.3538    1.7972   88.3631    1.6882   88.4835    1.8773   88.4817    1.8796   -0.0000   -0.0000
  1.960   88.9495    1.7206   88.9116    1.8301   88.9315    1.8286   88.9413    1.7185   89.0632    1.9102   89.0614    1.9125   -0.0000   -0.0000
  1.970   89.5386    1.7514   89.5002    1.8623   89.5203    1.8609   89.5306    1.7495   89.6540    1.9441   89.6522    1.9463   -0.0000   -0.0000
  1.980   90.1391    1.7829   90.1000    1.8955   90.1204    1.8940   90.1313    1.7814   90.2561    1.9788   90.2544    1.9810   -0.0000   -0.0000
  1.990   90.7512    1.8153   90.7116    1.9295   90.7322    1.9280   90.7436    1.8141   90.8701    2.0144   90.8683    2.0166   -0.0000   -0.0000
  2.000   91.3753    1.8486   91.3351    1.9644   91.3559    1.9630   91.3679    1.8477   91.4960    2.0510   91.4943    2.0532   -0.0000   -0.0000
  2.010   92.0117    1.8828   91.9710    2.0002   91.9920    1.9988   92.0046    1.8822   92.1343    2.0886   92.1327    2.0908   -0.0000   -0.0000
  2.020   92.6609    1.9179   92.6195    2.0371   92.6408    2.0357   92.6540    1.9177   92.7854    2.1273   92.7837    2.1294   -0.0000   -0.0000
  2.030   93.3230    1.9540   93.2810    2.0749   93.3026    2.0736   93.3164    1.9542   93.4495    2.1670   93.4479    2.1691   -0.0000   -0.0000
  2.040   93.9986    1.9911   93.9559    2.1139   93.9777    2.1125   93.9922    1.9917   94.1271    2.2078   94.1256    2.2099   -0.0000   -0.0000
  2.050   94.6880    2.0293   94.6446    2.1539   94.6667    2.1526   94.6819    2.0302   94.8186    2.2498   94.8171    2.2518   -0.0000   -0.0000
  2.060   95.3915    2.0686   95.3475    2.1951   95.3699    2.1938   95.3858    2.0699   95.5243    2.2929   95.5228    2.2950   -0.0000   -0.0000
  2.070   96.1098    2.1090   96.0650    2.2374   96.0877    2.2361   96.1043    2.1108   96.2448    2.3374   96.2433    2.3394   -0.0000   -0.0000
  2.080   96.8430    2.1506   96.7976    2.2810   96.8205    2.2797   96.8379    2.1528   96.9803    2.3831   96.9789    2.3851   -0.0000   -0.0000
  2.090   97.5919    2.1935   97.5457    2.3259   97.5689    2.3246   97.5871    2.1962   97.7315    2.4302   97.7301    2.4321   -0.0000   -0.0000
  2.100   98.3567    2.2376   98.3097    2.3721   98.3332    2.3709   98.3522    2.2408   98.4987    2.4787   98.4973    2.4806   -0.0000   -0.0000
  2.110   99.1380    2.2830   99.0902    2.4197   99.1141    2.4185   99.1339    2.2867   99.2825    2.5286   99.2812    2.5305   -0.0000   -0.0000
  2.120   99.9363    2.3299   99.8877    2.4687   99.9119    2.4676   99.9326    2.3341  100.0834    2.5801  100.0821    2.5819   -0.0000   -0.0000
  2.130  100.7522    2.3782  100.7028    2.5193  100.7273    2.5182  100.7489    2.3830  100.9019    2.6331  100.9006    2.6349   -0.0000   -0.0000
  2.140  101.5862    2.4280  101.5359    2.5714  101.5607    2.5703  101.5834    2.4334  101.7386    2.6879  101.7374    2.6896   -0.0000   -0.0000
  2.150  102.4389    2.4794  102.3877    2.6252  102.4129    2.6241  102.4366    2.4854  102.5941    2.7443  102.5929    2.7460   -0.0000   -0.0000
  2.160  103.3109    2.5324  103.2588    2.6807  103.2843    2.6796  103.3091    2.5391  103.4690    2.8026  103.4679    2.8042   -0.0000   -0.0000
  2.170  104.2029    2.5871  104.1499    2.7380  104.1757    2.7370  104.2016    2.5945  104.3639    2.8627  104.3629    2.8643   -0.0000   -0.0000
  2.180  105.1155    2.6437  105.0615    2.7971  105.0877    2.7961  105.1147    2.6517  105.2796    2.9248  105.2786    2.9263   -0.0000   -0.0000
  2.190  106.0495    2.7021  105.9944    2.8582  106.0211    2.8573  106.0492    2.7109  106.2167    2.9889  106.2158    2.9904   -0.0000   -0.0000
  2.200  107.0055    2.7625  106.9494    2.9213  106.9764    2.9204  107.0058    2.7721  107.1759    3.0552  107.1751    3.0566   -0.0000   -0.0000
  2.210  107.9843    2.8249  107.9271    2.9866  107.9546    2.9857  107.9853    2.8353  108.1581    3.1237  108.1574    3.1251   -0.0000   -0.0000
  2.220  108.9868    2.8895  108.9285    3.0541  108.9563    3.0532  108.9884    2.9007  109.1641    3.1946  109.1634    3.1959   -0.0000   -0.0000
  2.230  110.0138    2.9563  109.9543    3.1239  109.9826    3.1231  110.0160    2.9684  110.1946    3.2680  110.1940    3.2692   -0.0000   -0.0000
  2.240  111.0661    3.0255  111.0054    3.1962  111.0341    3.1954  111.0690    3.0385  111.2506    3.3439  111.2501    3.3451   -0.0000   -0.0000
  2.250  112.1447    3.0971  112.0827    3.2710  112.1119    3.2703  112.1484    3.1112  112.3330    3.4225  112.3326    3.4236   -0.0000   -0.0000
  2.260  113.2505    3.1714  113.1873    3.3485  113.2170    3.3479  113.2550    3.1864  113.4428    3.5040  113.4424    3.5050   -0.0000   -0.0000
  2.270  114.3847    3.2483  114.3201    3.4289  114.3502    3.4283  114.3900    3.2645  114.5810    3.5884  114.5808    3.5894   -0.0000   -0.0000
  2.280  115.5481    3.3281  115.4822    3.5122  115.5128    3.5116  115.5544    3.3454  115.7487    3.6760  115.7486    3.6769   -0.0000   -0.0000
  2.290  116.7421    3.4109  116.6747    3.5986  116.7059    3.5981  116.7493    3.4294  116.9471    3.7668  116.9470    3.7676   -0.0000   -0.0000
  2.300  117.9678    3.4969  117.8989    3.6883  117.9306    3.6879  117.9759    3.5166  118.1773    3.8611  118.1773    3.8618   -0.0000   -0.0000
  2.310  119.2264    3.5861  119.1559    3.7814  119.1882    3.7811  119.2355    3.6072  119.4406    3.9590  119.4407    3.9596   -0.0000   -0.0000
  2.320  120.5192    3.6789  120.4472    3.8782  120.4800    3.8779  120.5294    3.7014  120.7383    4.0608  120.7386    4.0613   -0.0000   -0.0000
  2.330  121.8477    3.7754  121.7740    3.9788  121.8074    3.9785  121.8590    3.7993  122.0718    4.1665  122.0722    4.1669   -0.0000   -0.0000
  2.340  123.2133    3.8757  123.1378    4.0834  123.1718    4.0832  123.2258    3.9012  123.4426    4.2766  123.4432    4.2769   -0.0000   -0.0000
  2.350  124.6175    3.9801  124.5402    4.1923  124.5749    4.1922  124.6313    4.0073  124.8523    4.3911  124.8530    4.3913   -0.0000   -0.0000
  2.360  126.0620    4.0889  125.9829    4.3056  126.0182    4.3056  126.0772    4.1177  126.3025    4.5103  126.3034    4.5104   -0.0000   -0.0000
  2.370  127.5486    4.2022  127.4675    4.4237  127.5035    4.4238  127.5652    4.2329  127.7949    4.6345  127.7960    4.6345   -0.0000   -0.0000
  2.380  129.0791    4.3204  128.9959    4.5468  129.0326    4.5469  129.0972    4.3530  129.3315    4.7641  129.3327    4.7639   -0.0000   -0.0000
  2.390  130.6554    4.4437  130.5700    4.6752  130.6075    4.6754  130.6750    4.4783  130.9141    4.8992  130.9155    4.8989   -0.0000   -0.0000
  2.400  132.2795    4.5725  132.1919    4.8092  132.2302    4.8096  132.3008    4.6092  132.5449    5.0403  132.5465    5.0398   -0.0000   -0.0000
  2.410  133.9538    4.7069  133.8638    4.9492  133.9029    4.9497  133.9768    4.7459  134.2260    5.1876  134.2278    5.1870   -0.0000   -0.0000
  2.420  135.6804    4.8475  135.5880    5.0955  135.6279    5.0961  135.7053    4.8889  135.9598    5.3417  135.9618    5.3409   -0.0000   -0.0000
  2.430  137.4619    4.9946  137.3670    5.2485  137.4077    5.2492  137.4888    5.0385  137.7488    5.5028  137.7511    5.5019   -0.0000   -0.0000
  2.440  139.3010    5.1486  139.2033    5.4087  139.2450    5.4095  139.3300    5.1952  139.5957    5.6715  139.5981    5.6704   -0.0000   -0.0000
  2.450  141.2003    5.3099  141.0998    5.5765  141.1424    5.5775  141.2315    5.3594  141.5031    5.8483  141.5059    5.8470   -0.0000   -0.0000
  2.460  143.1629    5.4791  143.0595    5.7523  143.1031    5.7535  143.1965    5.5316  143.4743    6.0335  143.4773    6.0321   -0.0000   -0.0000
  2.470  145.1921    5.6566  145.0855    5.9368  145.1302    5.9382  145.2282    5.7124  145.5123    6.2280  145.5156    6.2263   -0.0000   -0.0000
  2.480  147.2912    5.8431  147.1813    6.1306  147.2271    6.1321  147.3299    5.9022  147.6207    6.4321  147.6243    6.4302   -0.0000   -0.0000
  2.490  149.4638    6.0391  149.3505    6.3342  149.3974    6.3358  149.5053    6.1019  149.8031    6.6468  149.8070    6.6446   -0.0000   -0.0000
  2.500  151.7139    6.2453  151.5970    6.5483  151.6451    6.5502  151.7585    6.3119  152.0634    6.8725  152.0677    6.8701   -0.0000   -0.0000
  2.510  154.0457    6.4624  153.9250    6.7738  153.9743    6.7759  154.0934    6.5332  154.4059    7.1103  154.4105    7.1076   -0.0000   -0.0000
  2.520  156.4637    6.6913  156.3389    7.0114  156.3895    7.0137  156.5148    6.7665  156.8351    7.3608  156.8401    7.3579   -0.0000   -0.0000
  2.530  158.9727    6.9328  158.8437    7.2620  158.8957    7.2645  159.0275    7.0128  159.3559    7.6252  159.3614    7.6220   -0.0000   -0.0000
  2.540  161.5780    7.1879  161.4444    7.5266  161.4979    7.5294  161.6366    7.2729  161.9735    7.9044  161.9795    7.9009   -0.0000   -0.0000
  2.550  164.2852    7.4576  164.1468    7.8063  164.2017    7.8094  164.3478    7.5480  164.6937    8.1996  164.7001    8.1958   -0.0000   -0.0000
  2.560  167.1003    7.7431  166.9568    8.1024  167.0134    8.1058  167.1673    7.8393  167.5225    8.5121  167.5294    8.5079   -0.0000   -0.0000
  2.570  170.0299    8.0457  169.8810    8.4160  169.9393    8.4197  170.1017    8.1481  170.4665    8.8432  170.4741    8.8387   -0.0000   -0.0000
  2.580  173.0811    8.3667  172.9265    8.7487  172.9866    8.7527  173.1579    8.4759  173.5330    9.1946  173.5411    9.1896   -0.0000   -0.0000
  2.590  176.2617    8.7078  176.1009    9.1020  176.1630    9.1064  176.3439    8.8241  176.7296    9.5678  176.7385    9.5624   -0.0000   -0.0000
  2.600  179.5800    9.0706  179.4128    9.4777  179.4768    9.4826  179.6680    9.1947  180.0649    9.9648  180.0745    9.9589   -0.0000   -0.0000
  2.610  183.0452    9.4572  182.8710    9.8779  182.9372    9.8832  183.1395    9.5896  183.5481   10.3876  183.5584   10.3813   -0.0000   -0.0000
  2.620  186.6673    9.8695  186.4855   10.3046  186.5540   10.3104  186.7681   10.0109  187.1891   10.8387  187.2003   10.8319   -0.0000   -0.0000
  2.630  190.4570   10.3100  190.2672   10.7604  190.3381   10.7667  190.5650   10.4612  190.9990   11.3207  191.0110   11.3133   -0.0000   -0.0000
  2.640  194.4263   10.7814  194.2279   11.2479  194.3015   11.2548  194.5421   10.9431  194.9897   11.8363  195.0027   11.8284   -0.0000   -0.0000
  2.650  198.5882   11.2866  198.3806   11.7703  198.4570   11.7778  198.7124   11.4599  199.1744   12.3890  199.1885   12.3804   -0.0000   -0.0000
  2.660  202.9572   11.8290  202.7397   12.3310  202.8190   12.3392  203.0904   12.0148  203.5676   12.9823  203.5829   12.9731   -0.0000   -0.0000
  2.670  207.5491   12.4125  207.3208   12.9339  207.4032   12.9429  207.6920   12.6119  208.1852   13.6206  208.2017   13.6106   -0.0000   -0.0000
  2.680  212.3812   13.0413  212.1413   13.5834  212.2272   13.5932  212.5347   13.2556  213.0449   14.3084  213.0628   14.2976   -0.0000   -0.0000
  2.690  217.4731   13.7203  217.2205   14.2845  217.3101   14.2952  217.6381   13.9509  218.1661   15.0511  218.1856   15.0395   -0.0000   -0.0000
  2.700  222.8462   14.4551  222.5798   15.0429  222.6735   15.0546  223.0236   14.7035  223.5706   15.8548  223.5917   15.8423   -0.0000   -0.0000
  2.710  228.5244   15.2520  228.2430   15.8651  228.3410   15.8780  228.7154   15.5200  229.2825   16.7264  229.3055   16.7130   -0.0000   -0.0000
  2.720  234.5344   16.1184  234.2367   16.7587  234.3394   16.7728  234.7402   16.4080  235.3287   17.6741  235.3537   17.6596   -0.0000   -0.0000
  2.730  240.9063   17.0626  240.5906   17.7322  240.6984   17.7477  241.1282   17.3761  241.7393   18.7069  241.7666   18.6913   -0.0000   -0.0000
  2.740  247.6735   18.0945  247.3381   18.7956  247.4515   18.8127  247.9131   18.4345  248.5484   19.8357  248.5781   19.8188   -0.0000   -0.0000
  2.750  254.8742   19.2253  254.5170   19.9605  254.6364   19.9793  255.1332   19.5947  255.7941   21.0727  255.8266   21.0544   -0.0000   -0.0000
  2.760  262.5511   20.4683  262.1698   21.2405  262.2960   21.2612  262.8314   20.8705  263.5198   22.4325  263.5554   22.4128   -0.0000   -0.0000
  2.770  270.7531   21.8391  270.3451   22.6513  270.4786   22.6743  271.0569   22.2779  271.7745   23.9321  271.8136   23.9108   -0.0000   -0.0000
  2.780  279.5359   23.3559  279.0980   24.2118  279.2397   24.2373  279.8656   23.8359  280.6144   25.5917  280.6573   25.5686   -0.0000   -0.0000
  2.790  288.9632   25.0406  288.4918   25.9441  288.6425   25.9726  289.3216   25.5670  290.1037   27.4350  290.1510   27.4101   -0.0000   -0.0000
  2.800  299.1083   26.9191  298.5994   27.8748  298.7602   27.9067  299.4986   27.4981  300.3163   29.4908  300.3686   29.4637   -0.0000   -0.0000
  2.810  310.0563   29.0228  309.5048   30.0359  309.6768   30.0716  310.4820   29.6615  311.3378   31.7932  311.3957   31.7638   -0.0000   -0.0000
  2.820  321.9058   31.3895  321.3060   32.4658  321.4907   32.5060  322.3709   32.0966  323.2674   34.3838  323.3318   34.3519   -0.0000   -0.0000
  2.830  334.7723   34.0656  334.1174   35.2118  334.3163   35.2572  335.2816   34.8511  336.2215   37.3135  336.2933   37.2788   -0.0000   -0.0000
  2.840  348.7917   37.1078  348.0734   38.3317  348.2885   38.3834  349.3506   37.9840  350.3367   40.6447  350.4171   40.6070   -0.0000   -0.0000
  2.850  364.1249   40.5870  363.3334   41.8975  363.5668   41.9565  364.7396   41.5687  365.7748   44.4552  365.8651   44.4141   -0.0000   -0.0000
  2.860  380.9639   44.5918  380.0870   45.9993  380.3415   46.0670  381.6415   45.6970  382.7284   48.8423  382.8305   48.7975   -0.0000   -0.0000
  2.870  399.5394   49.2345  398.5621   50.7511  398.8411   50.8295  400.2880   50.4857  401.4291   53.9295  401.5449   53.8807   -0.0000   -0.0000
  2.880  420.1307   54.6594  419.0346   56.2992  419.3419   56.3906  420.9599   56.0842  422.1567   59.8756  422.2890   59.8224   -0.0000   -0.0000
  2.890  443.0795   61.0539  441.8413   62.8335  442.1818   62.9411  444.0001   62.6873  445.2529   66.8864  445.4049   66.8284   -0.0000   -0.0000
  2.900  468.8070   68.6648  467.3970   70.6041  467.7768   70.7317  469.8314   70.5515  471.1382   75.2339  471.3141   75.1708   -0.0000   -0.0000
  2.910  497.8383   77.8231  496.2182   79.9453  496.6449   80.0984  498.9802   80.0209  500.3352   85.2820  500.5404   85.2135   -0.0000   -0.0000
  2.920  530.8346   88.9795  528.9542   91.3123  529.4373   91.4984  532.1090   91.5646  533.4997   97.5270  533.7412   97.4531   -0.0000   -0.0000
  2.930  568.6383  102.7612  566.4305  105.3373  566.9822  105.5665  570.0602  105.8352  571.4628  112.6592  571.7501  112.5802   -0.0000   -0.0000
  2.940  612.3346  120.0597  609.7083  122.9173  610.3443  123.2044  613.9172  123.7615  615.2884  131.6594  615.6342  131.5767   -0.0000   -0.0000
  2.950  663.3376  142.1754  660.1660  145.3579  660.9069  145.7244  665.0865  146.6983  666.3490  155.9576  666.7710  155.8739   -0.0001   -0.0000
  2.960  723.5071  171.0598  719.6099  174.6139  720.4828  175.0923  725.4098  176.6794  726.4248  187.6967  726.9478  187.6177   -0.0016   -0.0000
  2.970  795.3019  209.7389  790.4157  213.7075  791.4563  214.3485  797.3026  216.8583  797.8170  230.1913  798.4772  230.1290   -0.0242   -0.0000
  2.980  881.9531  263.0818  875.6830  267.4849  876.9373  268.3710  883.8974  272.3048  883.4372  288.7529  884.2881  288.7313   -0.2624   -0.0001
  2.990  987.5655  339.2547  979.3022  344.0398  980.8264  345.3107  989.0696  351.5055  986.7142  372.2239  987.8362  372.2931   -2.1322   -0.0009
  3.000 1116.7612  452.5782 1105.5445  457.4916 1107.3933  459.3949 1116.8951  469.2776 1110.7747  495.9052 1112.2895  496.1738  -13.2107   -0.0057
  3.010 1272.4300  629.2547 1256.7427  633.5046 1258.9148  636.4973 1268.9226  652.4846 1255.0621  687.0968 1257.1424  687.8115  -63.4672   -0.0291
  3.020 1446.3164  918.3250 1423.9033  919.6913 1426.1285  924.6242 1433.5940  950.4033 1403.3158  994.2996 1406.1341  996.0424 -236.4023   -0.1159
  3.030 1584.1927 1406.1285 1552.6662 1398.7159 1553.6431 1406.9866 1549.5639 1445.6440 1485.1984 1492.6574 1488.5051 1496.7514 -665.5404   -0.3605
  3.040 1481.0109 2185.9881 1443.2826 2156.0369 1438.6528 2168.3060 1406.1989 2211.6472 1287.2828 2224.8278 1288.5422 2233.2309 *********   -0.8604
  3.050  683.4684 3041.6992  669.0214 2975.6936  652.4198 2984.3953  589.0142 3001.0998  463.7957 2905.4583  456.4954 2915.1223 *********   -1.5750
  3.060 -719.4202 3032.5925 -675.4351 2978.3190 -693.2161 2970.5682 -751.9315 2941.2326 -756.0482 2793.1709 -768.1623 2792.8881 *********   -2.2708
  3.070 ********* 2137.6214 ********* 2133.1582 ********* 2120.1371 ********* 2072.3375 ********* 1995.8146 ********* 1989.6003 *********   -2.7265
  3.080 ********* 1342.1221 ********* 1354.4499 ********* 1345.4582 ********* 1308.6905 ********* 1285.5179 ********* 1280.2652 -545.0977   -2.9268
  3.090 *********  863.8892 *********  874.5602 *********  869.1790 *********  845.7855 *********  842.1758 *********  838.7488 -194.4085   -2.9983
  3.100 *********  592.7148 *********  598.0029 *********  594.6082 *********  579.3877 *********  581.3678 *********  579.3036 -677.1708   -3.2471
  3.110 *********  432.6852 *********  434.5797 *********  431.7703 *********  420.0504 *********  423.8226 *********  422.7144 *********   -4.6026
  3.120 -964.0209  292.8921 -955.6301  302.1239 -953.2161  299.9047 -941.4301  293.1134 -928.7656  299.4505 -928.2404  298.5678 *********   -5.8437
  3.130 -836.4685  211.9438 -833.9457  220.0492 -831.9376  218.9578 -822.7309  216.2248 -814.6830  221.3637 -814.2631  220.6776 -413.9216   -5.9958
  3.140 -739.5915  164.7245 -739.0032  170.5944 -737.4338  169.8903 -730.3418  168.6117 -724.6899  172.6677 -724.3106  172.1050   -9.4511   -5.9993
  3.150 -662.8175  131.4371 -662.9506  135.7727 -661.6649  135.2626 -655.9963  134.7117 -651.8753  137.9634 -651.5264  137.5078   -0.0716   -5.9993
  3.160 -599.6868  106.7212 -600.1270  110.0087 -599.0388  109.6181 -594.4003  109.4939 -591.3317  112.1218 -591.0134  111.7524   -0.0002   -5.9993
  3.170 -546.6453   87.8590 -547.2207   90.4039 -546.2773   90.0932 -542.4222   90.2335 -540.1052   92.3665 -539.8162   92.0645   -0.0000   -5.9993
  3.180 -501.3851   73.1547 -502.0158   75.1559 -501.1820   74.9012 -497.9418   75.2080 -496.1763   76.9431 -495.9141   76.6940   -0.0000   -5.9993
  3.190 -462.2759   61.4812 -462.9228   63.0737 -462.1735   62.8596 -459.4274   63.2702 -458.0752   64.6822 -457.8369   64.4750   -0.0000   -5.9993
  3.200 -428.1141   52.0637 -428.7577   53.3427 -428.0742   53.1586 -425.7327   53.6316 -424.6958   54.7788 -424.4785   54.6053   -0.0000   -5.9993
  3.210 -397.9850   44.3564 -398.6163   45.3906 -397.9841   45.2290 -395.9794   45.7365 -395.1863   46.6650 -394.9877   46.5189   -0.0000   -5.9993
  3.220 -371.1788   37.9664 -371.7944   38.8068 -371.2020   38.6624 -369.4816   39.1846 -368.8794   39.9312 -368.6972   39.8077   -0.0000   -5.9993
  3.230 -347.1343   32.6052 -347.7339   33.2904 -347.1718   33.1593 -345.6949   33.6823 -345.2436   34.2767 -345.0758   34.1722   -0.0000   -5.9993
  3.240 -325.4007   28.0578 -325.9859   28.6177 -325.4460   28.4968 -324.1803   29.0103 -323.8490   29.4768 -323.6941   29.3883   -0.0000   -5.9993
  3.250 -305.6095   24.1614 -306.1832   24.6193 -305.6584   24.5063 -304.5783   25.0023 -304.3426   25.3610 -304.1993   25.2863   -0.0000   -5.9993
  3.260 -287.4546   20.7908 -288.0206   21.1655 -287.5041   21.0588 -286.5892   21.5309 -286.4298   21.7985 -286.2970   21.7358   -0.0000   -5.9993
  3.270 -270.6769   17.8493 -271.2395   18.1561 -270.7249   18.0543 -269.9590   18.4971 -269.8599   18.6879 -269.7369   18.6357   -0.0000   -5.9993
  3.280 -255.0519   15.2614 -255.6164   15.5130 -255.0972   15.4150 -254.4675   15.8233 -254.4153   15.9499 -254.3015   15.9072   -0.0000   -5.9993
  3.290 -240.3800   12.9683 -240.9527   13.1753 -240.4218   13.0806 -239.9182   13.4491 -239.9011   13.5230 -239.7963   13.4887   -0.0005   -5.9993
  3.300 -226.4779   10.9246 -227.0661   11.0963 -226.5157   11.0047 -226.1305   11.3277 -226.1377   11.3599 -226.0420   11.3331   -0.0498   -5.9993
  3.310 -213.1696    9.0966 -213.7828    9.2414 -213.2034    9.1530 -212.9308    9.4241 -212.9517    9.4258 -212.8658    9.4056   -2.3231   -6.0002
  3.320 -200.2778    7.4614 -200.9280    7.5871 -200.3079    7.5025 -200.1436    7.7140 -200.1672    7.6983 -200.0925    7.6832  -45.8078   -6.0170
  3.330 -187.6115    6.0048 -188.3151    6.1189 -187.6388    6.0398 -187.5799    6.1831 -187.5941    6.1672 -187.5329    6.1541 -382.1089   -6.1574
  3.340 -174.9383    4.7187 -175.7194    4.8283 -174.9646    4.7581 -175.0111    4.8247 -175.0048    4.8353 -174.9584    4.8166 *********   -6.6529
  3.350 -161.9151    3.6529 -162.8098    3.7600 -161.9437    3.7110 -162.1082    3.6856 -162.0834    3.7557 -162.0408    3.7237 *********   -7.3926
  3.360 -148.1984    3.0317 -149.2512    3.1312 -148.2380    3.1273 -148.5269    2.9656 -148.4761    3.1170 -148.4323    3.0857 *********   -7.8597
  3.370 -133.3832    3.0207 -134.6635    3.1073 -133.4494    3.1786 -133.8464    2.8346 -133.7381    3.1307 -133.7108    3.1007 -339.5592   -7.9845
  3.380 -116.6768    4.0208 -118.3052    4.0669 -116.8002    4.2778 -117.2838    3.6970 -117.1003    4.2680 -117.1037    4.2214  -38.7273   -7.9987
  3.390  -96.8950    7.0358  -99.0750    6.9501  -97.1411    7.4463  -97.6641    6.5485  -97.4287    7.6371  -97.4742    7.5380   -7.3119   -8.0014
  3.400  -72.2991   14.4261  -75.3715   13.9324  -72.8169   15.0607  -73.2621   13.7421  -73.1592   15.8243  -73.2431   15.5923  -51.8989   -8.0205
  3.410  -40.9688   32.1352  -45.4011   30.3971  -42.1104   33.0282  -42.2094   31.2159  -43.0896   35.1696  -43.1052   34.6294 -304.3642   -8.1324
  3.420   -5.6863   75.0097  -11.2824   69.7129   -8.2409   75.8268   -7.5143   73.6995  -12.6849   80.0496  -12.0501   79.0644 *********   -8.5292
  3.430    0.2356  164.7304   -1.5866  152.8761   -4.6160  163.2104   -2.5632  161.7245  -17.8074  162.9726  -15.6688  163.0394 *********   -9.3403
  3.440  -96.3335  242.4995  -86.4131  232.8742  -98.0679  235.4040  -96.8991  236.4239 -106.4168  220.6009 -105.9660  222.6057 *********  -10.2525
  3.450 -197.8984  198.5748 -188.3300  199.7284 -194.0162  194.5101 -195.0568  193.8208 -190.2351  181.8836 -190.8279  182.7360 *********  -10.8036
  3.460 -220.2095  133.4601 -215.9401  136.7956 -216.9721  132.7791 -216.9363  130.7742 -210.8280  126.0686 -211.2931  126.4698 -528.1079  -10.9977
  3.470 -213.1704   93.3845 -211.3893   95.8774 -211.2236   93.5744 -210.3407   91.6851 -205.7744   89.9243 -206.1761   90.1693 -272.8767  -11.0980
  3.480 -201.0394   70.3819 -200.1779   71.9279 -199.8416   70.6417 -198.6500   69.0218 -195.3393   68.3352 -195.7139   68.4883 -503.4398  -11.2830
  3.490 -189.4103   56.7136 -188.0328   57.6803 -188.5932   56.8304 -187.1296   55.3788 -184.5603   55.1011 -184.9871   55.1579 *********  -15.1080
  3.500 -179.9443   48.4266 -179.5076   49.2264 -179.2724   48.4137 -177.9246   46.9050 -175.8831   46.8577 -176.2502   46.8357 *********  -15.7219
  3.510 -173.1740   43.3306 -172.6463   43.8298 -172.4702   43.1748 -170.7722   41.3966 -168.9941   41.5279 -169.3635   41.3747 *********  -16.6634
  3.520 -170.3221   37.8800 -169.6149   38.4413 -169.3656   37.7892 -166.7217   36.0523 -165.1906   36.5131 -165.4228   36.1718 *********  -17.8591
  3.530 -165.8605   28.0502 -165.3644   28.8666 -164.9345   28.4056 -161.6309   27.8215 -160.6526   28.4877 -160.6139   28.1951 *********  -18.8396
  3.540 -156.6284   21.1008 -156.4394   21.8257 -156.0611   21.5921 -153.2322   21.9754 -152.6476   22.4719 -152.5636   22.3430 *********  -19.2963
  3.550 -148.1964   17.9662 -148.1375   18.5290 -147.8497   18.3882 -145.5975   19.0748 -145.1730   19.4137 -145.1196   19.3528 -347.7552  -19.4241
  3.560 -141.3408   16.1726 -141.3349   16.6106 -141.1081   16.5108 -139.2462   17.2560 -138.9080   17.4993 -138.8781   17.4630  -74.1041  -19.4513
  3.570 -135.5374   14.8590 -135.5560   15.2055 -135.3695   15.1289 -133.7667   15.8659 -133.4890   16.0481 -133.4729   16.0222  -15.0700  -19.4569
  3.580 -130.4274   13.7822 -130.4584   14.0598 -130.3003   13.9987 -128.8795   14.7110 -128.6489   14.8505 -128.6411   14.8298   -2.8425  -19.4579
  3.590 -125.8106   12.8586 -125.8482   13.0831 -125.7110   13.0332 -124.4256   13.7182 -124.2335   13.8261 -124.2306   13.8084   -0.4572  -19.4581
  3.600 -121.5690   12.0509 -121.6102   12.2334 -121.4890   12.1918 -120.3091   12.8510 -120.1490   12.9344 -120.1492   12.9186   -0.0613  -19.4581
  3.610 -117.6271   11.3369 -117.6703   11.4858 -117.5617   11.4507 -116.4670   12.0863 -116.3338   12.1502 -116.3360   12.1359   -0.0068  -19.4581
  3.620 -113.9331   10.7019 -113.9773   10.8232 -113.8789   10.7933 -112.8550   11.4074 -112.7444   11.4558 -112.7479   11.4426   -0.0006  -19.4581
  3.630 -110.4490   10.1344 -110.4939   10.2331 -110.4037   10.2072 -109.4399   10.8019 -109.3486   10.8377 -109.3530   10.8255   -0.0000  -19.4581
  3.640 -107.1461    9.6256 -107.1913    9.7056 -107.1079    9.6829 -106.1959   10.2598 -106.1211   10.2855 -106.1261   10.2741   -0.0000  -19.4581
  3.650 -104.0013    9.1683 -104.0467    9.2327 -103.9690    9.2127 -103.1024    9.7731 -103.0417    9.7907 -103.0471    9.7800   -0.0000  -19.4581
  3.660 -100.9961    8.7566 -101.0417    8.8080 -100.9688    8.7901 -100.1423    9.3351 -100.0936    9.3465 -100.0993    9.3366   -0.0001  -19.4581
  3.670  -98.1150    8.3858  -98.1607    8.4263  -98.0919    8.4101  -97.3012    8.9407  -97.2628    8.9474  -97.2688    8.9382   -0.0001  -19.4581
  3.680  -95.3446    8.0519  -95.3906    8.0833  -95.3252    8.0686  -94.5669    8.5855  -94.5372    8.5889  -94.5434    8.5803   -0.0003  -19.4581
  3.690  -92.6738    7.7516  -92.7201    7.7756  -92.6577    7.7620  -91.9286    8.2658  -91.9062    8.2673  -91.9127    8.2593   -0.0008  -19.4581
  3.700  -90.0924    7.4824  -90.1391    7.5003  -90.0793    7.4876  -89.3770    7.9789  -89.3607    7.9796  -89.3673    7.9722   -0.0017  -19.4581
  3.710  -87.5917    7.2421  -87.6389    7.2552  -87.5813    7.2432  -86.9035    7.7224  -86.8923    7.7235  -86.8991    7.7167   -0.0037  -19.4581
  3.720  -85.1636    7.0292  -85.2116    7.0385  -85.1558    7.0270  -84.5006    7.4944  -84.4936    7.4971  -84.5006    7.4908   -0.0080  -19.4581
  3.730  -82.8010    6.8424  -82.8498    6.8491  -82.7957    6.8379  -82.1614    7.2937  -82.1576    7.2991  -82.1648    7.2933   -0.0168  -19.4581
  3.740  -80.4973    6.6811  -80.5471    6.6859  -80.4944    6.6749  -79.8794    7.1194  -79.8782    7.1285  -79.8856    7.1233   -0.0343  -19.4581
  3.750  -78.2463    6.5447  -78.2973    6.5487  -78.2459    6.5377  -77.6489    6.9710  -77.6494    6.9849  -77.6570    6.9802   -0.0682  -19.4581
  3.760  -76.0422    6.4334  -76.0946    6.4373  -76.0443    6.4263  -75.4641    6.8484  -75.4657    6.8683  -75.4736    6.8640   -0.1323  -19.4582
  3.770  -73.8797    6.3476  -73.9337    6.3522  -73.8844    6.3410  -73.3199    6.7520  -73.3220    6.7790  -73.3302    6.7751   -0.2500  -19.4583
  3.780  -71.7537    6.2881  -71.8095    6.2942  -71.7610    6.2827  -71.2114    6.6825  -71.2134    6.7179  -71.2219    6.7144   -0.4607  -19.4584
  3.790  -69.6592    6.2563  -69.7171    6.2648  -69.6694    6.2529  -69.1337    6.6414  -69.1350    6.6863  -69.1439    6.6833   -0.8276  -19.4588
  3.800  -67.5916    6.2541  -67.6519    6.2658  -67.6048    6.2533  -67.0823    6.6304  -67.0825    6.6863  -67.0918    6.6836   -1.4493  -19.4593
  3.810  -65.5463    6.2842  -65.6094    6.2998  -65.5629    6.2866  -65.0528    6.6521  -65.0515    6.7204  -65.0612    6.7181   -2.4742  -19.4602
  3.820  -63.5192    6.3497  -63.5854    6.3700  -63.5394    6.3560  -63.0412    6.7097  -63.0379    6.7920  -63.0481    6.7900   -4.1178  -19.4617
  3.830  -61.5063    6.4548  -61.5760    6.4808  -61.5305    6.4658  -61.0435    6.8073  -61.0380    6.9053  -61.0486    6.9035   -6.6809  -19.4642
  3.840  -59.5038    6.6047  -59.5776    6.6373  -59.5325    6.6210  -59.0563    6.9501  -59.0483    7.0656  -59.0595    7.0641  -10.5668  -19.4680
  3.850  -57.5088    6.8059  -57.5872    6.8460  -57.5426    6.8283  -57.0766    7.1444  -57.0659    7.2796  -57.0777    7.2782  -16.2926  -19.4740
  3.860  -55.5188    7.0661  -55.6026    7.1147  -55.5583    7.0954  -55.1022    7.3980  -55.0888    7.5551  -55.1013    7.5538  -24.4890  -19.4830
  3.870  -53.5325    7.3949  -53.6225    7.4531  -53.5785    7.4319  -53.1321    7.7204  -53.1162    7.9019  -53.1293    7.9006  -35.8828  -19.4962
  3.880  -51.5504    7.8038  -51.6475    7.8726  -51.6039    7.8493  -51.1667    8.1231  -51.1487    8.3317  -51.1625    8.3303  -51.2547  -19.5151
  3.890  -49.5752    8.3065  -49.6805    8.3871  -49.6372    8.3612  -49.2092    8.6194  -49.1897    8.8582  -49.2043    8.8566  -71.3692  -19.5413
  3.900  -47.6130    8.9187  -47.7279    9.0124  -47.6849    8.9835  -47.2659    9.2250  -47.2460    9.4973  -47.2614    9.4955  -96.8762  -19.5769
  3.910  -45.6749    9.6584  -45.8010    9.7664  -45.7583    9.7340  -45.3482    9.9577  -45.3297   10.2671  -45.3458   10.2647 -128.1888  -19.6240
  3.920  -43.7788   10.5449  -43.9180   10.6684  -43.8756   10.6319  -43.4744   10.8363  -43.4595   11.1864  -43.4764   11.1834 -165.3519  -19.6848
  3.930  -41.9515   11.5970  -42.1061   11.7372  -42.0640   11.6958  -41.6716   11.8791  -41.6634   12.2738  -41.6811   12.2698 -207.9185  -19.7612
  3.940  -40.2315   12.8303  -40.4039   12.9883  -40.3620   12.9409  -39.9784   13.1010  -39.9812   13.5438  -39.9994   13.5386 -254.8593  -19.8548
  3.950  -38.6703   14.2518  -38.8635   14.4286  -38.8215   14.3738  -38.4464   14.5082  -38.4655   15.0018  -38.4840   14.9953 -304.5302  -19.9667
  3.960  -37.3325   15.8526  -37.5500   16.0488  -37.5074   15.9849  -37.1402   16.0905  -37.1818   16.6367  -37.2004   16.6285 -354.7168  -20.0971
  3.970  -36.2919   17.5978  -36.5372   17.8137  -36.4930   17.7385  -36.1327   17.8120  -36.2037   18.4107  -36.2219   18.4008 -402.7669  -20.2451
  3.980  -35.6198   19.4176  -35.8973   19.6532  -35.8492   19.5642  -35.4942   19.6018  -35.6014   20.2508  -35.6186   20.2391 -445.8057  -20.4089
  3.990  -35.3671   21.2028  -35.6811   21.4573  -35.6261   21.3524  -35.2738   21.3504  -35.4225   22.0449  -35.4383   22.0317 -481.0125  -20.5857
  4.000  -35.5400   22.8129  -35.8953   23.0849  -35.8285   22.9623  -35.4761   22.9172  -35.6689   23.6510  -35.6828   23.6367 -505.9244  -20.7716
  4.010  -36.0811   24.0996  -36.4824   24.3866  -36.3980   24.2465  -36.0420   24.1554  -36.2781   24.9219  -36.2898   24.9070 -518.7196  -20.9623
  4.020  -36.8670   24.9434  -37.3187   25.2421  -37.2105   25.0868  -36.8476   24.9471  -37.1223   25.7413  -37.1317   25.7265 -518.4384  -21.1528
  4.030  -37.7301   25.2869  -38.2356   25.5933  -38.0983   25.4274  -37.7256   25.2364  -38.0317   26.0570  -38.0391   26.0428 -505.1023  -21.3384
  4.040  -38.4975   25.1489  -39.0593   25.4586  -38.8897   25.2885  -38.5042   25.0433  -38.8337   25.8928  -38.8394   25.8796 -479.7126  -21.5147
  4.050  -39.0293   24.6119  -39.6489   24.9211  -39.4461   24.7535  -39.0451   24.4503  -39.3909   25.3353  -39.3953   25.3234 -444.1300  -21.6779
  4.060  -39.2393   23.7928  -39.9178   24.0986  -39.6831   23.9394  -39.2632   23.5737  -39.6202   24.5041  -39.6237   24.4936 -400.8599  -21.8252
  4.070  -39.0951   22.8122  -39.8343   23.1128  -39.5702   22.9666  -39.1273   22.5329  -39.4929   23.5209  -39.4959   23.5116 -352.7862  -21.9549
  4.080  -38.6051   21.7738  -39.4076   22.0677  -39.1172   21.9375  -38.6458   21.4299  -39.0203   22.4890  -39.0230   22.4809 -302.9112  -22.0662
  4.090  -37.8007   20.7556  -38.6707   21.0413  -38.3571   20.9289  -37.8502   20.3410  -38.2364   21.4859  -38.2390   21.4788 -254.1597  -22.1596
  4.100  -36.7222   19.8106  -37.6658   20.0856  -37.3312   19.9917  -36.7801   19.3171  -37.1838   20.5633  -37.1864   20.5571 -209.2996  -22.2365
  4.110  -35.4095   18.9717  -36.4343   19.2312  -36.0807   19.1561  -35.4744   18.3890  -35.9042   19.7525  -35.9070   19.7471 -171.0251  -22.2994
  4.120  -33.8974   18.2576  -35.0121   18.4934  -34.6406   18.4369  -33.9659   17.5730  -34.4340   19.0700  -34.4371   19.0651 -142.2779  -22.3516
  4.130  -32.2141   17.6781  -33.4268   17.8767  -33.0381   17.8386  -32.2792   16.8759  -32.8021   18.5224  -32.8057   18.5178 -127.0021  -22.3983
  4.140  -30.3814   17.2373  -31.6975   17.3782  -31.2916   17.3581  -30.4307   16.2998  -31.0304   18.1093  -31.0345   18.1048 -131.5714  -22.4467
  4.150  -28.4167   16.9359  -29.8330   16.9900  -29.4097   16.9875  -28.4291   15.8442  -29.1334   17.8256  -29.1385   17.8207 -166.4434  -22.5078
  4.160  -26.3354   16.7696  -27.8306   16.7006  -27.3890   16.7151  -26.2754   15.5083  -27.1187   17.6601  -27.1250   17.6541 -245.5172  -22.5981
  4.170  -24.1510   16.7227  -25.6714   16.4975  -25.2098   16.5278  -23.9639   15.2927  -24.9833   17.5930  -24.9911   17.5842 -379.6750  -22.7376
  4.180  -21.8658   16.7543  -23.3142   16.3743  -22.8297   16.4185  -21.4822   15.1999  -22.7031   17.5911  -22.7118   17.5766 -570.8222  -22.9474
  4.190  -19.4300   16.7899  -20.6928   16.3466  -20.1796   16.4023  -18.8105   15.2355  -20.2030   17.6133  -20.2088   17.5894 -834.9793  -23.2542
  4.200  -16.6766   16.7860  -17.7271   16.4743  -17.1749   16.5399  -15.9208   15.4098  -17.3205   17.6701  -17.3149   17.6362 *********  -23.7058
  4.210  -13.3889   16.8861  -14.3579   16.8699  -13.7515   16.9481  -12.7759   15.7399  -13.8764   17.9362  -13.8514   17.9000 *********  -24.3282
  4.220   -9.5406   17.3604  -10.5746   17.6716   -9.8962   17.7728   -9.3287   16.2518   -9.8602   18.6931   -9.8157   18.6657 *********  -25.0255
  4.230   -5.2446   18.3414   -6.4167   19.0103   -5.6508   19.1523   -5.5189   16.9817   -5.4033   20.1209   -5.3455   20.1107 *********  -25.6450
  4.240   -0.5276   19.8478   -1.9375   20.9682   -1.0702   21.1718   -1.2678   17.9808   -0.5980   22.2801   -0.5356   22.2890 *********  -26.1743
  4.250    4.6942   21.9333    2.8657   23.6174    3.8500   23.9094    3.5285   19.3241    4.5683   25.2389    4.6299   25.2645 *********  -26.7601
  4.260   10.5626   24.7448    8.0398   27.0939    9.1586   27.5101    9.0075   21.1227   10.1657   29.1640   10.2243   29.2040 *********  -27.4383
  4.270   17.2527   28.5492   13.6354   31.6348   14.9082   32.2259   15.3537   23.5448   16.2678   34.3610   16.3228   34.4141 *********  -27.9551
  4.280   24.9620   33.7847   19.6628   37.6090   21.1089   38.4501   22.8171   26.8530   22.8997   41.3216   22.9507   41.3881 -691.4335  -28.2092
  4.290   33.8829   41.1654   26.0253   45.5540   27.6560   46.7593   31.7399   31.4727   29.9486   50.7992   29.9949   50.8805 -352.7619  -28.3389
  4.300   44.1035   51.8723   32.3986   56.2080   34.1969   57.9529   42.5883   38.1239   36.9717   63.9139   37.0112   64.0130 -278.2144  -28.4411
  4.310   55.2945   67.8640   38.0217   70.4869   39.8925   73.0352   55.9737   48.0927   42.7690   82.2350   42.7975   82.3557 -316.4399  -28.5574
  4.320   65.8172   92.2289   41.4170   89.2849   43.0757   93.0011   72.5723   63.8143   44.4890  107.5809   44.4981  107.7276 -447.9875  -28.7220
  4.330   70.5603  128.7800   40.2703  113.0006   41.0289  118.2676   92.5420   90.1703   36.1204  140.5946   36.0952  140.7706 -673.7265  -28.9696
  4.340   58.0552  177.9007   31.8224  141.3449   30.3007  148.1656  112.6252  137.1270    8.1010  175.7819    8.0145  175.9849 -996.8149  -29.3360
  4.350   14.8253  227.3971   11.6155  174.8415    5.8224  181.7148  113.7121  221.1768  -43.2879  194.5323  -43.4836  194.7298 *********  -29.8583
  4.360  -62.1291  253.6808  -35.8804  208.3926  -46.1158  210.8009   32.6619  331.6119  -97.4617  179.4626  -97.7747  179.5329 *********  -30.5160
  4.370 -150.5786  220.9443 -111.6706  199.0811 -120.0394  194.4287 -142.9522  333.3021 -129.1932  143.3697 -129.4420  143.2458 *********  -31.1727
  4.380 -185.5682  147.6238 -151.3182  144.3946 -154.2756  138.3317 -228.6256  214.0909 -138.7698  107.8587 -138.8668  107.7087 *********  -31.7154
  4.390 -178.2230   93.4794 -152.8417   98.7989 -153.0467   94.3952 -221.8252  122.2234 -136.7491   80.6578 -136.7779   80.5588 *********  -32.1856
  4.400 -161.4610   62.1560 -143.4044   70.3425 -142.7522   67.4782 -195.2741   73.3262 -130.2881   61.2945 -130.2993   61.2366 *********  -32.7048
  4.410 -145.5671   43.8310 -132.6917   52.4606 -131.8761   50.5984 -170.8221   47.4184 -122.6814   47.6467 -122.6910   47.6131 *********  -33.3557
  4.420 -132.2525   32.4849 -122.9178   40.6386 -122.1543   39.3962 -151.3475   32.7566 -115.2388   37.9074 -115.2506   37.8880 *********  -33.9634
  4.430 -121.3371   25.0607 -114.4272   32.4504 -113.7696   31.5959 -136.1136   23.8704 -108.4126   30.8186 -108.4270   30.8078 -878.6571  -34.2863
  4.440 -112.3498   19.9705 -107.1256   26.5608 -106.5758   25.9555 -124.0606   18.1589 -102.3066   25.5477 -102.3234   25.5424 -296.5955  -34.3953
  4.450 -104.8631   16.3434 -100.8340   22.1920 -100.3788   21.7517 -114.3482   14.3061  -96.8914   21.5465  -96.9100   21.5449 -100.5624  -34.4323
  4.460  -98.5430   13.6747  -95.3786   18.8674  -95.0023   18.5394 -106.3732   11.6014  -92.0932   18.4500  -92.1133   18.4511  -41.9336  -34.4477
  4.470  -93.1379   11.6578  -90.6114   16.2820  -90.2997   16.0324  -99.7095    9.6390  -87.8298   16.0114  -87.8511   16.0145  -17.8018  -34.4543
  4.480  -88.4591   10.0982  -86.4120   14.2337  -86.1529   14.0399  -94.0539    8.1752  -84.0244   14.0602  -84.0467   14.0649   -6.9596  -34.4568
  4.490  -84.3644    8.8685  -82.6837   12.5843  -82.4673   12.4312  -89.1869    7.0572  -80.6096   12.4766  -80.6328   12.4827   -2.4400  -34.4577
  4.500  -80.7452    7.8823  -79.3489   11.2371  -79.1673   11.1142  -84.9472    6.1860  -77.5282   11.1748  -77.5521   11.1822   -0.7608  -34.4580
  4.510  -77.5178    7.0796  -76.3453   10.1228  -76.1922   10.0225  -81.2139    5.4950  -74.7323   10.0923  -74.7569   10.1007   -0.2104  -34.4581
  4.520  -74.6164    6.4176  -73.6225    9.1907  -73.4928    9.1077  -77.8948    4.9385  -72.1817    9.1827  -72.2069    9.1921   -0.0516  -34.4581
  4.530  -71.9893    5.8654  -71.1394    8.4032  -71.0290    8.3334  -74.9188    4.4842  -69.8431    8.4112  -69.8689    8.4215   -0.0112  -34.4581
  4.540  -69.5950    5.3999  -68.8625    7.7318  -68.7681    7.6724  -72.2300    4.1089  -67.6885    7.7512  -67.7149    7.7624   -0.0022  -34.4581
  4.550  -67.3998    5.0040  -66.7641    7.1547  -66.6830    7.1034  -69.7839    3.7956  -65.6945    7.1822  -65.7215    7.1943   -0.0004  -34.4581
  4.560  -65.3763    4.6644  -64.8209    6.6550  -64.7509    6.6101  -67.5449    3.5315  -63.8414    6.6883  -63.8690    6.7012   -0.0001  -34.4581
  4.570  -63.5018    4.3710  -63.0139    6.2195  -62.9531    6.1797  -65.4839    3.3069  -62.1123    6.2567  -62.1405    6.2704   -0.0000  -34.4581
  4.580  -61.7577    4.1157  -61.3266    5.8375  -61.2736    5.8018  -63.5771    3.1146  -60.4930    5.8774  -60.5218    5.8919   -0.0000  -34.4581
  4.590  -60.1280    3.8923  -59.7454    5.5007  -59.6988    5.4682  -61.8047    2.9487  -58.9714    5.5422  -59.0009    5.5576   -0.0000  -34.4581
  4.600  -58.5994    3.6958  -58.2583    5.2021  -58.2171    5.1723  -60.1502    2.8048  -57.5370    5.2447  -57.5671    5.2609   -0.0000  -34.4581
  4.610  -57.1607    3.5220  -56.8554    4.9364  -56.8187    4.9086  -58.5998    2.6792  -56.1807    4.9794  -56.2115    4.9964   -0.0000  -34.4581
  4.620  -55.8022    3.3677  -55.5278    4.6988  -55.4948    4.6727  -57.1417    2.5692  -54.8947    4.7418  -54.9262    4.7597   -0.0000  -34.4581
  4.630  -54.5154    3.2302  -54.2681    4.4856  -54.2381    4.4609  -55.7657    2.4723  -53.6721    4.5284  -53.7044    4.5471   -0.0000  -34.4581
  4.640  -53.2932    3.1072  -53.0697    4.2937  -53.0421    4.2700  -54.4633    2.3868  -52.5069    4.3359  -52.5400    4.3555   -0.0000  -34.4581
  4.650  -52.1293    2.9969  -51.9267    4.1203  -51.9011    4.0974  -53.2269    2.3110  -51.3938    4.1619  -51.4277    4.1823   -0.0000  -34.4581
  4.660  -51.0182    2.8977  -50.8341    3.9633  -50.8101    3.9411  -52.0500    2.2437  -50.3283    4.0041  -50.3630    4.0254   -0.0000  -34.4581
  4.670  -49.9550    2.8083  -49.7874    3.8209  -49.7645    3.7991  -50.9271    2.1838  -49.3060    3.8608  -49.3416    3.8830   -0.0000  -34.4581
  4.680  -48.9354    2.7276  -48.7826    3.6913  -48.7606    3.6698  -49.8530    2.1306  -48.3234    3.7302  -48.3599    3.7533   -0.0000  -34.4581
  4.690  -47.9558    2.6547  -47.8162    3.5732  -47.7947    3.5520  -48.8234    2.0831  -47.3772    3.6111  -47.4147    3.6352   -0.0000  -34.4581
  4.700  -47.0126    2.5887  -46.8850    3.4655  -46.8637    3.4444  -47.8344    2.0408  -46.4643    3.5023  -46.5028    3.5274   -0.0000  -34.4581
  4.710  -46.1029    2.5291  -45.9862    3.3671  -45.9649    3.3460  -46.8825    2.0032  -45.5822    3.4029  -45.6218    3.4289   -0.0000  -34.4581
  4.720  -45.2240    2.4752  -45.1172    3.2772  -45.0956    3.2560  -45.9646    1.9699  -44.7285    3.3119  -44.7691    3.3389   -0.0000  -34.4581
  4.730  -44.3734    2.4265  -44.2756    3.1950  -44.2536    3.1736  -45.0780    1.9404  -43.9009    3.2285  -43.9426    3.2566   -0.0000  -34.4581
  4.740  -43.5489    2.3827  -43.4594    3.1198  -43.4367    3.0982  -44.2201    1.9144  -43.0974    3.1522  -43.1404    3.1814   -0.0000  -34.4581
  4.750  -42.7485    2.3432  -42.6666    3.0510  -42.6431    3.0293  -43.3886    1.8917  -42.3164    3.0824  -42.3606    3.1127   -0.0000  -34.4581
  4.760  -41.9703    2.3078  -41.8956    2.9883  -41.8711    2.9662  -42.5815    1.8721  -41.5560    3.0185  -41.6015    3.0500   -0.0000  -34.4581
  4.770  -41.2128    2.2763  -41.1446    2.9310  -41.1189    2.9086  -41.7969    1.8553  -40.8148    2.9601  -40.8617    2.9928   -0.0000  -34.4581
  4.780  -40.4743    2.2484  -40.4122    2.8789  -40.3853    2.8561  -41.0331    1.8412  -40.0914    2.9069  -40.1397    2.9408   -0.0000  -34.4581
  4.790  -39.7534    2.2238  -39.6971    2.8317  -39.6687    2.8084  -40.2886    1.8296  -39.3845    2.8586  -39.4342    2.8937   -0.0000  -34.4581
  4.800  -39.0488    2.2025  -38.9980    2.7889  -38.9680    2.7652  -39.5618    1.8205  -38.6928    2.8147  -38.7441    2.8512   -0.0000  -34.4581
  4.810  -38.3593    2.1842  -38.3137    2.7505  -38.2819    2.7262  -38.8514    1.8137  -38.0153    2.7752  -38.0682    2.8130   -0.0000  -34.4581
  4.820  -37.6838    2.1690  -37.6431    2.7161  -37.6094    2.6913  -38.1562    1.8092  -37.3508    2.7397  -37.4055    2.7790   -0.0000  -34.4581
  4.830  -37.0213    2.1565  -36.9852    2.6855  -36.9494    2.6602  -37.4750    1.8069  -36.6985    2.7081  -36.7550    2.7489   -0.0000  -34.4581
  4.840  -36.3706    2.1469  -36.3390    2.6588  -36.3010    2.6328  -36.8068    1.8068  -36.0573    2.6802  -36.1157    2.7225   -0.0000  -34.4581
  4.850  -35.7309    2.1400  -35.7037    2.6356  -35.6633    2.6090  -36.1505    1.8088  -35.4264    2.6559  -35.4868    2.6999   -0.0000  -34.4581
  4.860  -35.1014    2.1358  -35.0783    2.6159  -35.0354    2.5887  -35.5051    1.8130  -34.8050    2.6351  -34.8675    2.6808   -0.0000  -34.4581
  4.870  -34.4810    2.1342  -34.4620    2.5996  -34.4165    2.5717  -34.8698    1.8193  -34.1922    2.6177  -34.2569    2.6651   -0.0000  -34.4581
  4.880  -33.8692    2.1353  -33.8541    2.5867  -33.8058    2.5580  -34.2437    1.8278  -33.5874    2.6036  -33.6543    2.6529   -0.0000  -34.4581
  4.890  -33.2650    2.1391  -33.2538    2.5771  -33.2025    2.5476  -33.6259    1.8385  -32.9896    2.5928  -33.0590    2.6440   -0.0000  -34.4581
  4.900  -32.6678    2.1455  -32.6604    2.5708  -32.6059    2.5405  -33.0157    1.8515  -32.3984    2.5853  -32.4703    2.6385   -0.0000  -34.4581
  4.910  -32.0768    2.1547  -32.0732    2.5678  -32.0154    2.5366  -32.4123    1.8667  -31.8128    2.5810  -31.8875    2.6364   -0.0000  -34.4581
  4.920  -31.4914    2.1667  -31.4915    2.5680  -31.4301    2.5360  -31.8149    1.8843  -31.2324    2.5800  -31.3099    2.6376   -0.0000  -34.4581
  4.930  -30.9108    2.1816  -30.9147    2.5717  -30.8495    2.5387  -31.2229    1.9044  -30.6564    2.5823  -30.7369    2.6423   -0.0000  -34.4581
  4.940  -30.3344    2.1994  -30.3421    2.5787  -30.2729    2.5447  -30.6355    1.9270  -30.0842    2.5880  -30.1679    2.6504   -0.0000  -34.4581
  4.950  -29.7616    2.2203  -29.7730    2.5892  -29.6997    2.5542  -30.0521    1.9523  -29.5152    2.5971  -29.6022    2.6620   -0.0000  -34.4581
  4.960  -29.1917    2.2444  -29.2069    2.6033  -29.1291    2.5673  -29.4719    1.9804  -28.9486    2.6096  -29.0393    2.6774   -0.0000  -34.4581
  4.970  -28.6241    2.2718  -28.6431    2.6211  -28.5606    2.5840  -28.8944    2.0115  -28.3839    2.6259  -28.4784    2.6965   -0.0000  -34.4581
  4.980  -28.0581    2.3028  -28.0810    2.6428  -27.9935    2.6045  -28.3187    2.0457  -27.8205    2.6458  -27.9190    2.7195   -0.0001  -34.4581
  4.990  -27.4931    2.3376  -27.5199    2.6685  -27.4271    2.6289  -27.7443    2.0832  -27.2576    2.6697  -27.3605    2.7467   -0.0002  -34.4581
  5.000  -26.9284    2.3764  -26.9593    2.6985  -26.8608    2.6576  -27.1704    2.1243  -26.6947    2.6978  -26.8022    2.7782   -0.0004  -34.4581
  5.010  -26.3634    2.4194  -26.3984    2.7330  -26.2940    2.6907  -26.5964    2.1692  -26.1311    2.7302  -26.2434    2.8142   -0.0012  -34.4581
  5.020  -25.7974    2.4670  -25.8367    2.7723  -25.7259    2.7286  -26.0215    2.2183  -25.5661    2.7672  -25.6836    2.8551   -0.0032  -34.4581
  5.030  -25.2298    2.5196  -25.2734    2.8167  -25.1559    2.7715  -25.4451    2.2717  -24.9989    2.8091  -25.1221    2.9012   -0.0082  -34.4581
  5.040  -24.6598    2.5774  -24.7080    2.8666  -24.5833    2.8198  -24.8664    2.3300  -24.4290    2.8563  -24.5582    2.9528   -0.0202  -34.4581
  5.050  -24.0867    2.6411  -24.1396    2.9224  -24.0072    2.8739  -24.2846    2.3935  -23.8555    2.9091  -23.9911    3.0104   -0.0478  -34.4581
  5.060  -23.5099    2.7111  -23.5676    2.9847  -23.4271    2.9344  -23.6990    2.4627  -23.2777    2.9681  -23.4203    3.0745   -0.1093  -34.4582
  5.070  -22.9286    2.7881  -22.9912    3.0541  -22.8420    3.0018  -23.1087    2.5382  -22.6947    3.0337  -22.8448    3.1456   -0.2412  -34.4582
  5.080  -22.3419    2.8727  -22.4097    3.1311  -22.2511    3.0768  -22.5129    2.6205  -22.1058    3.1065  -22.2640    3.2244   -0.5133  -34.4584
  5.090  -21.7492    2.9657  -21.8224    3.2166  -21.6538    3.1600  -21.9108    2.7105  -21.5100    3.1873  -21.6770    3.3117   -1.0541  -34.4588
  5.100  -21.1496    3.0682  -21.2284    3.3115  -21.0490    3.2525  -21.3014    2.8089  -20.9066    3.2769  -21.0831    3.4082   -2.0891  -34.4596
  5.110  -20.5424    3.1810  -20.6269    3.4168  -20.4360    3.3552  -20.6839    2.9166  -20.2944    3.3761  -20.4814    3.5151   -3.9968  -34.4611
  5.120  -19.9267    3.3055  -20.0173    3.5338  -19.8138    3.4693  -20.0572    3.0348  -19.6727    3.4861  -19.8710    3.6334   -7.3831  -34.4638
  5.130  -19.3018    3.4432  -19.3987    3.6638  -19.1817    3.5962  -19.4204    3.1647  -19.0403    3.6082  -19.2512    3.7646  -13.1713  -34.4686
  5.140  -18.6671    3.5957  -18.7704    3.8086  -18.5388    3.7374  -18.7725    3.3079  -18.3964    3.7437  -18.6210    3.9103  -22.6980  -34.4770
  5.150  -18.0218    3.7650  -18.1319    3.9700  -17.8844    3.8949  -18.1127    3.4659  -17.7400    3.8944  -17.9798    4.0722  -37.7933  -34.4908
  5.160  -17.3658    3.9533  -17.4827    4.1504  -17.2179    4.0708  -17.4400    3.6410  -17.0701    4.0623  -17.3269    4.2527  -60.8158  -34.5132
  5.170  -16.6987    4.1633  -16.8226    4.3524  -16.5389    4.2677  -16.7537    3.8352  -16.3860    4.2497  -16.6617    4.4542  -94.6014  -34.5480
  5.180  -16.0208    4.3981  -16.1520    4.5790  -15.8474    4.4884  -16.0533    4.0515  -15.6870    4.4593  -15.9841    4.6798 -142.2890  -34.6003
  5.190  -15.3331    4.6610  -15.4716    4.8338  -15.1439    4.7362  -15.3385    4.2928  -14.9730    4.6942  -15.2944    4.9330 -206.9940  -34.6763
  5.200  -14.6374    4.9559  -14.7831    5.1207  -14.4297    5.0147  -14.6097    4.5626  -14.2440    4.9579  -14.5934    5.2176 -291.3371  -34.7834
  5.210  -13.9364    5.2867  -14.0894    5.4438  -13.7071    5.3278  -13.8680    4.8647  -13.5010    5.2541  -13.8830    5.5383 -396.8743  -34.9292
  5.220  -13.2350    5.6574  -13.3952    5.8075  -12.9799    5.6790  -13.1153    5.2031  -12.7458    5.5870  -13.1664    5.8997 -523.5381  -35.1216
  5.230  -12.5397    6.0710  -12.7074    6.2153  -12.2536    6.0715  -12.3549    5.5816  -11.9815    5.9602  -12.4488    6.3067 -669.2598  -35.3676
  5.240  -11.8598    6.5289  -12.0353    6.6692  -11.5359    6.5062  -11.5917    6.0032  -11.2126    6.3771  -11.7376    6.7634 -830.0104  -35.6726
  5.250  -11.2069    7.0293  -11.3915    7.1683  -10.8363    6.9813  -10.8319    6.4692  -10.4449    6.8389  -11.0431    7.2723 *********  -36.0403
  5.260  -10.5944    7.5646  -10.7904    7.7058  -10.1651    7.4894  -10.0825    6.9782   -9.6848    7.3446  -10.3784    7.8326 *********  -36.4725
  5.270  -10.0353    8.1196  -10.2470    8.2672   -9.5301    8.0161   -9.3499    7.5249   -8.9377    7.8895   -9.7588    8.4386 *********  -36.9704
  5.280   -9.5378    8.6697   -9.7722    8.8282   -8.9322    8.5396   -8.6370    8.1007   -8.2053    8.4656   -9.2010    9.0777 *********  -37.5361
  5.290   -9.0998    9.1811   -9.3677    9.3548   -8.3581    9.0341   -7.9408    8.6957   -7.4824    9.0653   -8.7211    9.7282 *********  -38.1744
  5.300   -8.7022    9.6147   -9.0198    9.8058   -7.7761    9.4802   -7.2525    9.3045   -6.7583    9.6879   -8.3331   10.3561 *********  -38.8911
  5.310   -8.3030    9.9327   -8.6934   10.1379   -7.1395    9.8801   -6.5649    9.9295   -6.0254   10.3451   -8.0437   10.9050 *********  -39.6882
  5.320   -7.8303   10.1109   -8.3219   10.3142   -6.4084   10.2707   -5.8822   10.5735   -5.2974   11.0539   -7.8255   11.2840 *********  -40.5549
  5.330   -7.1803   10.1689   -7.7990   10.3344   -5.5846   10.7092   -5.2137   11.2182   -4.6109   11.8024   -7.5593   11.3951 *********  -41.4611
  5.340   -6.2655   10.2110   -7.0158   10.2833   -4.7169   11.2152   -4.5388   11.8251   -3.9777   12.5267   -7.0237   11.2505 *********  -42.3596
  5.350   -5.1062   10.3790   -5.9558   10.3048   -3.8284   11.7389   -3.7983   12.3788   -3.3332   13.1625   -6.0537   11.0520 *********  -43.1982
  5.360   -3.7975   10.7233   -4.6913   10.4838   -2.8599   12.2343   -2.9290   12.9031   -2.5725   13.7138   -4.6834   11.0405 *********  -43.9350
  5.370   -2.3798   11.2175   -3.2766   10.8293   -1.7227   12.7286   -1.8799   13.4502   -1.6140   14.2491   -3.0520   11.3334 *********  -44.5499
  5.380   -0.8337   11.8567   -1.7219   11.3455   -0.3642   13.3029   -0.6232   14.0934   -0.4222   14.8633   -1.2726   11.9460 *********  -45.0439
  5.390    0.8621   12.6766   -0.0269   12.0566    1.2217   14.0472    0.8401   14.9116    0.9982   15.6497    0.5950   12.8646 *********  -45.4312
  5.400    2.7095   13.7284    1.8029   12.9967    3.0137   15.0374    2.4872   15.9753    2.6186   16.6864    2.5248   14.0823 -814.6660  -45.7306
  5.410    4.6976   15.0645    3.7577   14.2027    4.9831   16.3351    4.2866   17.3443    4.4009   18.0372    4.5070   15.6087 -623.1919  -45.9596
  5.420    6.8111   16.7383    5.8276   15.7154    7.1025   17.9978    6.2046   19.0745    6.3061   19.7593    6.5352   17.4726 -472.7127  -46.1333
  5.430    9.0318   18.8118    8.0025   17.5850    9.3461   20.0910    8.2058   21.2269    8.2939   21.9135    8.5987   19.7218 -358.1077  -46.2649
  5.440   11.3347   21.3624   10.2682   19.8774   11.6821   22.6966   10.2468   23.8740   10.3165   24.5715   10.6741   22.4231 -276.6485  -46.3666
  5.450   13.6791   24.4889   12.5993   22.6788   14.0627   25.9201   12.2661   27.1051   12.3080   27.8204   12.7173   25.6628 -226.7856  -46.4499
  5.460   15.9947   28.3155   14.9485   26.0998   16.4072   29.8946   14.1708   31.0265   14.1708   31.7631   14.6522   29.5455 -207.1161  -46.5261
  5.470   18.1621   32.9922   17.2315   30.2787   18.5801   34.7803   15.8171   35.7574   15.7566   36.5123   16.3545   34.1903 -215.9397  -46.6054
  5.480   19.9838   38.6880   19.3033   35.3797   20.3579   40.7558   16.9875   41.4169   16.8451   42.1765   17.6311   39.7207 -251.0045  -46.6977
  5.490   21.1451   45.5683   20.9240   41.5828   21.3856   47.9891   17.3625   48.0945   17.1199   48.8292   18.1930   46.2412 -309.0578  -46.8112
  5.500   21.1678   53.7400   21.7128   49.0507   21.1284   56.5716   16.4964   55.7941   16.1512   56.4559   17.6266   53.7900 -385.1585  -46.9528
  5.510   19.3761   63.1412   21.0965   57.8521   18.8430   66.3879   13.8155   64.3395   13.4007   64.8700   15.3782   62.2542 -472.0436  -47.1262
  5.520   14.9291   73.3574   18.2862   67.8123   13.6363   76.9114    8.6798   73.2408    8.2804   73.6026   10.7885   71.2335 -560.0067  -47.3320
  5.530    7.0230   83.3977   12.3686   78.2798    4.7212   86.9777    0.5720   81.5617    0.3088   81.7931    3.2517   79.8763 -637.6731  -47.5664
  5.540   -4.6448   91.6110    2.6431   87.9056   -8.0531   94.7561  -10.5463   87.9229  -10.5984   88.1729   -7.4253   86.8184 -693.7369  -47.8213
  5.550  -19.2914   96.0644  -10.7623   94.7305  -23.6123   98.2554  -23.8472   90.8495  -23.7665   91.3104  -20.5607   90.4779 -719.2892  -48.0857
  5.560  -34.9018   95.4705  -26.3814   96.9079  -39.6447   96.3616  -37.6121   89.4699  -37.6269   90.2123  -34.4679   89.7966 -710.0065  -48.3466
  5.570  -48.9936   90.0186  -41.7182   93.7918  -53.5667   89.6058  -49.8583   84.0815  -50.1784   84.9688  -47.0650   84.9276 -667.3957  -48.5918
  5.580  -59.8029   81.2486  -54.4373   86.3804  -63.7612   79.8237  -59.2211   75.9980  -59.8835   76.7951  -56.8477   77.1519 -598.5784  -48.8118
  5.590  -66.8462   71.1070  -63.3951   76.6224  -69.9985   69.0675  -65.3503   66.8183  -66.2364   67.3551  -63.3699   68.1125 -514.6273  -49.0009
  5.600  -70.6132   61.1095  -68.6974   66.3588  -72.9702   58.7998  -68.6641   57.7881  -69.6118   58.0173  -67.0096   59.1163 -427.9946  -49.1582
  5.610  -71.9669   52.0893  -71.1199   56.7696  -73.6397   49.7434  -69.8820   49.6042  -70.7651   49.5645  -68.4800   50.9095 -349.8514  -49.2868
  5.620  -71.7310   44.3420  -71.5565   48.3849  -72.8551   42.0946  -69.6974   42.5242  -70.4450   42.2871  -68.4827   43.7837 -288.0819  -49.3927
  5.630  -70.5350   37.8584  -70.7492   41.3156  -71.2332   35.7764  -68.6487   36.5498  -69.2326   36.1865  -67.5697   37.7621 -246.3423  -49.4832
  5.640  -68.8086   32.4963  -69.2289   35.4660  -69.1801   30.6080  -67.1101   31.5662  -67.5275   31.1359  -66.1300   32.7433 -224.1854  -49.5656
  5.650  -66.8263   28.0771  -67.3466   30.6647  -66.9474   26.3914  -65.3249   27.4234  -65.5859   26.9722  -64.4219   28.5842 -217.9605  -49.6457
  5.660  -64.7553   24.4299  -65.3241   26.7290  -64.6861   22.9474  -63.4439   23.9743  -63.5655   23.5380  -62.6115   25.1390 -222.0956  -49.7273
  5.670  -62.6940   21.4070  -63.2959   23.4903  -62.4843   20.1249  -61.5571   21.0898  -61.5607   20.6964  -60.8020   22.2741 -230.4216  -49.8120
  5.680  -60.6974   18.8870  -61.3379   20.8020  -60.3920   17.7993  -59.7149   18.6633  -59.6261   18.3332  -59.0534   19.8724 -237.3118  -49.8992
  5.690  -58.7942   16.7725  -59.4853   18.5419  -58.4344   15.8674  -57.9438   16.6093  -57.7910   16.3540  -57.3943   17.8343 -238.5139  -49.9868
  5.700  -56.9970   14.9859  -57.7452   16.6138  -56.6188   14.2446  -56.2564   14.8606  -56.0679   14.6818  -55.8305   16.0805 -231.6174  -50.0720
  5.710  -55.3091   13.4660  -56.1096   14.9481  -54.9399   12.8634  -54.6578   13.3648  -54.4574   13.2550  -54.3551   14.5530 -216.1415  -50.1514
  5.720  -53.7284   12.1642  -54.5664   13.4974  -53.3850   11.6732  -53.1494   12.0794  -52.9536   12.0259  -52.9574   13.2123 -193.2784  -50.2224
  5.730  -52.2499   11.0421  -53.1062   12.2296  -51.9399   10.6375  -51.7302   10.9699  -51.5480   10.9587  -51.6291   12.0317 -165.3754  -50.2832
  5.740  -50.8672   10.0691  -51.7232   11.1200  -50.5916    9.7300  -50.3972   10.0075  -50.2318   10.0261  -50.3656   10.9912 -135.2922  -50.3329
  5.750  -49.5734    9.2205  -50.4145   10.1482  -49.3296    8.9311  -49.1460    9.1681  -48.9973    9.2070  -49.1647   10.0736 -105.7837  -50.3718
  5.760  -48.3616    8.4764  -49.1775    9.2957  -48.1457    8.2253  -47.9714    8.4323  -47.8376    8.4844  -48.0247    9.2637  -79.0349  -50.4008
  5.770  -47.2252    7.8208  -48.0095    8.5460  -47.0329    7.5997  -46.8679    7.7838  -46.7467    7.8446  -46.9439    8.5473  -56.4189  -50.4216
  5.780  -46.1579    7.2403  -46.9072    7.8846  -45.9856    7.0434  -45.8301    7.2095  -45.7191    7.2758  -45.9201    7.9118  -38.4777  -50.4357
  5.790  -45.1540    6.7240  -45.8671    7.2991  -44.9983    6.5471  -44.8527    6.6985  -44.7498    6.7683  -44.9503    7.3464  -25.0701  -50.4449
  5.800  -44.2080    6.2629  -44.8851    6.7786  -44.0664    6.1030  -43.9308    6.2418  -43.8344    6.3139  -44.0317    6.8416  -15.6048  -50.4506
  5.810  -43.3153    5.8495  -43.9573    6.3143  -43.1856    5.7042  -43.0597    5.8320  -42.9685    5.9056  -43.1611    6.3892   -9.2792  -50.4541
  5.820  -42.4714    5.4774  -43.0798    5.8984  -42.3518    5.3450  -42.2355    5.4630  -42.1484    5.5375  -42.3351    5.9824   -5.2712  -50.4560
  5.830  -41.6723    5.1414  -42.2489    5.5245  -41.5614    5.0203  -41.4543    5.1294  -41.3705    5.2045  -41.5509    5.6153   -2.8606  -50.4570
  5.840  -40.9144    4.8369  -41.4610    5.1872  -40.8111    4.7260  -40.7127    4.8268  -40.6315    4.9024  -40.8054    5.2830   -1.4830  -50.4576
  5.850  -40.1945    4.5602  -40.7130    4.8818  -40.0978    4.4585  -40.0076    4.5516  -39.9286    4.6275  -40.0959    4.9812   -0.7345  -50.4579
  5.860  -39.5095    4.3079  -40.0019    4.6044  -39.4188    4.2145  -39.3362    4.3005  -39.2591    4.3766  -39.4199    4.7063   -0.3475  -50.4580
  5.870  -38.8570    4.0773  -39.3248    4.3517  -38.7714    3.9915  -38.6960    4.0708  -38.6204    4.1470  -38.7749    4.4551   -0.1571  -50.4580
  5.880  -38.2343    3.8659  -38.6793    4.1208  -38.1535    3.7871  -38.0847    3.8601  -38.0103    3.9364  -38.1587    4.2250   -0.0678  -50.4581
  5.890  -37.6393    3.6716  -38.0631    3.9093  -37.5628    3.5992  -37.5002    3.6663  -37.4269    3.7427  -37.5694    4.0137   -0.0280  -50.4581
  5.900  -37.0701    3.4927  -37.4741    3.7149  -36.9975    3.4262  -36.9406    3.4877  -36.8683    3.5641  -37.0052    3.8192   -0.0110  -50.4581
  5.910  -36.5249    3.3275  -36.9103    3.5360  -36.4557    3.2664  -36.4042    3.3228  -36.3327    3.3992  -36.4642    3.6396   -0.0041  -50.4581
  5.920  -36.0019    3.1747  -36.3700    3.3709  -35.9360    3.1187  -35.8893    3.1700  -35.8186    3.2465  -35.9451    3.4736   -0.0015  -50.4581
  5.930  -35.4997    3.0330  -35.8517    3.2181  -35.4368    2.9816  -35.3946    3.0284  -35.3246    3.1048  -35.4462    3.3197   -0.0005  -50.4581
  5.940  -35.0169    2.9014  -35.3539    3.0765  -34.9568    2.8544  -34.9188    2.8967  -34.8494    2.9731  -34.9665    3.1768   -0.0002  -50.4581
  5.950  -34.5523    2.7789  -34.8751    2.9449  -34.4948    2.7359  -34.4606    2.7741  -34.3919    2.8505  -34.5045    3.0438   -0.0001  -50.4581
  5.960  -34.1047    2.6647  -34.4143    2.8225  -34.0496    2.6255  -34.0190    2.6598  -33.9508    2.7361  -34.0593    2.9198   -0.0000  -50.4581
  5.970  -33.6731    2.5581  -33.9703    2.7084  -33.6202    2.5224  -33.5929    2.5530  -33.5253    2.6292  -33.6298    2.8041   -0.0000  -50.4581
  5.980  -33.2565    2.4584  -33.5420    2.6018  -33.2057    2.4259  -33.1814    2.4531  -33.1143    2.5291  -33.2151    2.6958   -0.0000  -50.4581
  5.990  -32.8539    2.3649  -33.1285    2.5021  -32.8052    2.3355  -32.7837    2.3594  -32.7171    2.4354  -32.8144    2.5944   -0.0000  -50.4581
  6.000  -32.4647    2.2772  -32.7290    2.4086  -32.4178    2.2506  -32.3989    2.2715  -32.3329    2.3473  -32.4267    2.4993   -0.0000  -50.4581
  6.010  -32.0880    2.1949  -32.3426    2.3210  -32.0429    2.1709  -32.0264    2.1889  -31.9608    2.2645  -32.0515    2.4099   -0.0000  -50.4581
  6.020  -31.7232    2.1174  -31.9686    2.2386  -31.6797    2.0959  -31.6654    2.1111  -31.6003    2.1866  -31.6880    2.3257   -0.0000  -50.4581
  6.030  -31.3695    2.0443  -31.6063    2.1610  -31.3276    2.0252  -31.3153    2.0378  -31.2508    2.1132  -31.3355    2.2465   -0.0000  -50.4581
  6.040  -31.0265    1.9754  -31.2551    2.0879  -30.9860    1.9585  -30.9757    1.9687  -30.9116    2.0438  -30.9935    2.1717   -0.0000  -50.4581
  6.050  -30.6934    1.9104  -30.9143    2.0190  -30.6543    1.8955  -30.6458    1.9034  -30.5822    1.9783  -30.6615    2.1011   -0.0000  -50.4581
  6.060  -30.3699    1.8488  -30.5835    1.9538  -30.3321    1.8359  -30.3253    1.8416  -30.2621    1.9163  -30.3389    2.0343   -0.0000  -50.4581
  6.070  -30.0554    1.7906  -30.2621    1.8922  -30.0189    1.7794  -30.0136    1.7831  -29.9509    1.8576  -30.0253    1.9711   -0.0000  -50.4581
  6.080  -29.7496    1.7354  -29.9496    1.8338  -29.7142    1.7259  -29.7103    1.7277  -29.6481    1.8019  -29.7202    1.9111   -0.0000  -50.4581
  6.090  -29.4518    1.6830  -29.6457    1.7785  -29.4177    1.6751  -29.4150    1.6751  -29.3533    1.7490  -29.4232    1.8543   -0.0000  -50.4581
  6.100  -29.1619    1.6333  -29.3498    1.7260  -29.1288    1.6269  -29.1274    1.6251  -29.0661    1.6988  -29.1339    1.8002   -0.0000  -50.4581
  6.110  -28.8794    1.5860  -29.0616    1.6761  -28.8473    1.5810  -28.8471    1.5776  -28.7862    1.6510  -28.8521    1.7489   -0.0000  -50.4581
  6.120  -28.6040    1.5410  -28.7808    1.6286  -28.5729    1.5374  -28.5737    1.5324  -28.5133    1.6056  -28.5772    1.7000   -0.0000  -50.4581
  6.130  -28.3353    1.4982  -28.5070    1.5835  -28.3052    1.4958  -28.3070    1.4894  -28.2470    1.5622  -28.3091    1.6535   -0.0000  -50.4581
  6.140  -28.0731    1.4573  -28.2399    1.5405  -28.0439    1.4561  -28.0466    1.4483  -27.9871    1.5209  -28.0474    1.6091   -0.0000  -50.4581
  6.150  -27.8171    1.4183  -27.9793    1.4994  -27.7887    1.4182  -27.7923    1.4091  -27.7332    1.4814  -27.7919    1.5667   -0.0000  -50.4581
  6.160  -27.5669    1.3811  -27.7247    1.4603  -27.5394    1.3821  -27.5438    1.3718  -27.4852    1.4437  -27.5422    1.5262   -0.0000  -50.4581
  6.170  -27.3225    1.3456  -27.4760    1.4229  -27.2958    1.3475  -27.3009    1.3360  -27.2427    1.4077  -27.2982    1.4876   -0.0000  -50.4581
  6.180  -27.0835    1.3115  -27.2329    1.3871  -27.0575    1.3144  -27.0633    1.3018  -27.0056    1.3732  -27.0596    1.4506   -0.0000  -50.4581
  6.190  -26.8497    1.2790  -26.9952    1.3529  -26.8244    1.2828  -26.8309    1.2691  -26.7736    1.3401  -26.8261    1.4152   -0.0000  -50.4581
  6.200  -26.6209    1.2478  -26.7627    1.3201  -26.5963    1.2524  -26.6034    1.2378  -26.5465    1.3085  -26.5977    1.3813   -0.0000  -50.4581
  6.210  -26.3969    1.2179  -26.5352    1.2887  -26.3730    1.2233  -26.3807    1.2078  -26.3242    1.2781  -26.3741    1.3487   -0.0000  -50.4581
  6.220  -26.1775    1.1893  -26.3124    1.2586  -26.1543    1.1954  -26.1625    1.1790  -26.1064    1.2490  -26.1550    1.3175   -0.0000  -50.4581
  6.230  -25.9626    1.1617  -26.0942    1.2298  -25.9400    1.1686  -25.9487    1.1513  -25.8930    1.2210  -25.9404    1.2876   -0.0000  -50.4581
  6.240  -25.7520    1.1353  -25.8804    1.2020  -25.7300    1.1428  -25.7391    1.1248  -25.6839    1.1941  -25.7301    1.2588   -0.0000  -50.4581
  6.250  -25.5455    1.1099  -25.6709    1.1754  -25.5241    1.1180  -25.5336    1.0993  -25.4788    1.1683  -25.5239    1.2311   -0.0000  -50.4581
  6.260  -25.3429    1.0855  -25.4655    1.1497  -25.3221    1.0942  -25.3320    1.0747  -25.2776    1.1434  -25.3216    1.2045   -0.0000  -50.4581
  6.270  -25.1443    1.0620  -25.2640    1.1251  -25.1239    1.0713  -25.1342    1.0511  -25.0802    1.1195  -25.1232    1.1789   -0.0000  -50.4581
  6.280  -24.9493    1.0394  -25.0663    1.1014  -24.9295    1.0492  -24.9401    1.0284  -24.8865    1.0964  -24.9284    1.1542   -0.0000  -50.4581
  6.290  -24.7578    1.0176  -24.8723    1.0785  -24.7385    1.0279  -24.7495    1.0065  -24.6963    1.0741  -24.7373    1.1305   -0.0000  -50.4581
  6.300  -24.5699    0.9965  -24.6819    1.0565  -24.5511    1.0073  -24.5623    0.9854  -24.5095    1.0527  -24.5495    1.1076   -0.0000  -50.4581
  6.310  -24.3853    0.9763  -24.4948    1.0352  -24.3669    0.9875  -24.3784    0.9650  -24.3260    1.0320  -24.3651    1.0855   -0.0000  -50.4581
  6.320  -24.2039    0.9567  -24.3111    1.0147  -24.1859    0.9684  -24.1978    0.9454  -24.1457    1.0120  -24.1839    1.0641   -0.0000  -50.4581
  6.330  -24.0256    0.9379  -24.1306    0.9949  -24.0081    0.9499  -24.0202    0.9265  -23.9685    0.9927  -24.0059    1.0435   -0.0000  -50.4581
  6.340  -23.8503    0.9196  -23.9532    0.9758  -23.8333    0.9320  -23.8455    0.9082  -23.7943    0.9741  -23.8308    1.0236   -0.0000  -50.4581
  6.350  -23.6780    0.9020  -23.7788    0.9574  -23.6614    0.9148  -23.6738    0.8905  -23.6229    0.9561  -23.6587    1.0044   -0.0000  -50.4581
  6.360  -23.5085    0.8850  -23.6074    0.9395  -23.4923    0.8981  -23.5049    0.8734  -23.4544    0.9386  -23.4894    0.9858   -0.0000  -50.4581
  6.370  -23.3418    0.8685  -23.4387    0.9223  -23.3259    0.8819  -23.3388    0.8569  -23.2886    0.9217  -23.3229    0.9678   -0.0000  -50.4581
  6.380  -23.1777    0.8526  -23.2728    0.9055  -23.1622    0.8663  -23.1752    0.8409  -23.1254    0.9054  -23.1590    0.9504   -0.0000  -50.4581
  6.390  -23.0163    0.8371  -23.1095    0.8894  -23.0011    0.8511  -23.0143    0.8254  -22.9648    0.8896  -22.9977    0.9335   -0.0000  -50.4581
  6.400  -22.8573    0.8222  -22.9488    0.8737  -22.8425    0.8364  -22.8558    0.8104  -22.8067    0.8742  -22.8389    0.9172   -0.0000  -50.4581
  6.410  -22.7008    0.8077  -22.7906    0.8585  -22.6863    0.8222  -22.6997    0.7958  -22.6510    0.8594  -22.6825    0.9013   -0.0000  -50.4581
  6.420  -22.5466    0.7936  -22.6348    0.8438  -22.5325    0.8084  -22.5460    0.7818  -22.4977    0.8449  -22.5285    0.8860   -0.0000  -50.4581
  6.430  -22.3948    0.7800  -22.4814    0.8295  -22.3810    0.7950  -22.3946    0.7681  -22.3466    0.8309  -22.3769    0.8711   -0.0000  -50.4581
  6.440  -22.2452    0.7668  -22.3302    0.8157  -22.2317    0.7820  -22.2454    0.7549  -22.1977    0.8174  -22.2274    0.8566   -0.0000  -50.4581
  6.450  -22.0978    0.7540  -22.1813    0.8022  -22.0845    0.7694  -22.0984    0.7420  -22.0510    0.8042  -22.0801    0.8426   -0.0000  -50.4581
  6.460  -21.9525    0.7416  -22.0346    0.7892  -21.9395    0.7571  -21.9534    0.7295  -21.9065    0.7914  -21.9350    0.8289   -0.0000  -50.4581
  6.470  -21.8092    0.7295  -21.8900    0.7765  -21.7966    0.7452  -21.8105    0.7174  -21.7639    0.7789  -21.7919    0.8157   -0.0000  -50.4581
  6.480  -21.6680    0.7177  -21.7474    0.7642  -21.6556    0.7336  -21.6696    0.7057  -21.6234    0.7668  -21.6508    0.8028   -0.0000  -50.4581
  6.490  -21.5287    0.7063  -21.6068    0.7522  -21.5166    0.7224  -21.5307    0.6942  -21.4847    0.7551  -21.5117    0.7903   -0.0000  -50.4581
  6.500  -21.3914    0.6952  -21.4682    0.7406  -21.3795    0.7114  -21.3936    0.6831  -21.3480    0.7436  -21.3744    0.7782   -0.0000  -50.4581
  6.510  -21.2559    0.6844  -21.3314    0.7293  -21.2442    0.7008  -21.2584    0.6723  -21.2131    0.7325  -21.2391    0.7663   -0.0000  -50.4581
  6.520  -21.1222    0.6739  -21.1965    0.7183  -21.1108    0.6904  -21.1250    0.6618  -21.0800    0.7216  -21.1055    0.7548   -0.0000  -50.4581
  6.530  -20.9903    0.6637  -21.0635    0.7076  -20.9791    0.6803  -20.9934    0.6515  -20.9487    0.7111  -20.9737    0.7436   -0.0000  -50.4581
  6.540  -20.8601    0.6538  -20.9321    0.6971  -20.8491    0.6704  -20.8634    0.6416  -20.8191    0.7008  -20.8436    0.7327   -0.0000  -50.4581
  6.550  -20.7316    0.6441  -20.8025    0.6870  -20.7208    0.6609  -20.7352    0.6319  -20.6911    0.6908  -20.7153    0.7221   -0.0000  -50.4581
  6.560  -20.6047    0.6347  -20.6746    0.6771  -20.5942    0.6515  -20.6085    0.6224  -20.5648    0.6810  -20.5885    0.7117   -0.0000  -50.4581
  6.570  -20.4794    0.6255  -20.5483    0.6674  -20.4691    0.6424  -20.4835    0.6132  -20.4401    0.6715  -20.4634    0.7016   -0.0000  -50.4581
  6.580  -20.3557    0.6165  -20.4236    0.6580  -20.3456    0.6335  -20.3600    0.6043  -20.3169    0.6622  -20.3398    0.6918   -0.0000  -50.4581
  6.590  -20.2336    0.6078  -20.3004    0.6488  -20.2236    0.6249  -20.2381    0.5955  -20.1952    0.6532  -20.2177    0.6822   -0.0000  -50.4581
  6.600  -20.1129    0.5993  -20.1788    0.6399  -20.1032    0.6164  -20.1176    0.5870  -20.0751    0.6444  -20.0972    0.6728   -0.0000  -50.4581
  6.610  -19.9937    0.5909  -20.0587    0.6312  -19.9841    0.6082  -19.9986    0.5787  -19.9563    0.6358  -19.9781    0.6637   -0.0000  -50.4581
  6.620  -19.8759    0.5828  -19.9400    0.6227  -19.8666    0.6001  -19.8810    0.5706  -19.8390    0.6273  -19.8604    0.6548   -0.0000  -50.4581
  6.630  -19.7595    0.5749  -19.8227    0.6144  -19.7504    0.5923  -19.7648    0.5627  -19.7231    0.6191  -19.7442    0.6461   -0.0000  -50.4581
  6.640  -19.6445    0.5672  -19.7068    0.6062  -19.6355    0.5846  -19.6499    0.5550  -19.6086    0.6111  -19.6293    0.6376   -0.0000  -50.4581
  6.650  -19.5308    0.5597  -19.5923    0.5983  -19.5220    0.5771  -19.5364    0.5474  -19.4953    0.6033  -19.5157    0.6293   -0.0000  -50.4581
  6.660  -19.4185    0.5523  -19.4792    0.5906  -19.4098    0.5697  -19.4242    0.5401  -19.3834    0.5956  -19.4034    0.6212   -0.0000  -50.4581
  6.670  -19.3074    0.5451  -19.3673    0.5830  -19.2989    0.5626  -19.3133    0.5329  -19.2728    0.5881  -19.2925    0.6132   -0.0000  -50.4581
  6.680  -19.1976    0.5381  -19.2567    0.5756  -19.1892    0.5556  -19.2036    0.5258  -19.1634    0.5808  -19.1827    0.6055   -0.0000  -50.4581
  6.690  -19.0890    0.5312  -19.1474    0.5684  -19.0808    0.5487  -19.0951    0.5190  -19.0552    0.5737  -19.0743    0.5979   -0.0000  -50.4581
  6.700  -18.9816    0.5245  -19.0392    0.5613  -18.9736    0.5420  -18.9879    0.5123  -18.9482    0.5667  -18.9670    0.5905   -0.0000  -50.4581
  6.710  -18.8754    0.5179  -18.9323    0.5544  -18.8675    0.5355  -18.8818    0.5057  -18.8424    0.5598  -18.8609    0.5833   -0.0000  -50.4581
  6.720  -18.7704    0.5115  -18.8266    0.5476  -18.7626    0.5291  -18.7769    0.4993  -18.7377    0.5531  -18.7559    0.5762   -0.0000  -50.4581
  6.730  -18.6664    0.5052  -18.7220    0.5410  -18.6588    0.5228  -18.6731    0.4930  -18.6342    0.5466  -18.6521    0.5693   -0.0000  -50.4581
  6.740  -18.5636    0.4991  -18.6185    0.5346  -18.5562    0.5166  -18.5704    0.4869  -18.5318    0.5402  -18.5494    0.5625   -0.0000  -50.4581
  6.750  -18.4619    0.4930  -18.5162    0.5282  -18.4546    0.5106  -18.4688    0.4808  -18.4304    0.5339  -18.4478    0.5558   -0.0000  -50.4581
  6.760  -18.3613    0.4872  -18.4149    0.5220  -18.3541    0.5047  -18.3682    0.4750  -18.3301    0.5277  -18.3473    0.5493   -0.0000  -50.4581
  6.770  -18.2617    0.4814  -18.3147    0.5159  -18.2546    0.4990  -18.2687    0.4692  -18.2309    0.5217  -18.2478    0.5430   -0.0000  -50.4581
  6.780  -18.1631    0.4757  -18.2155    0.5100  -18.1562    0.4933  -18.1703    0.4636  -18.1327    0.5158  -18.1493    0.5367   -0.0000  -50.4581
  6.790  -18.0656    0.4702  -18.1174    0.5042  -18.0587    0.4878  -18.0728    0.4580  -18.0355    0.5100  -18.0519    0.5306   -0.0000  -50.4581
  6.800  -17.9690    0.4648  -18.0203    0.4985  -17.9623    0.4823  -17.9763    0.4526  -17.9392    0.5043  -17.9554    0.5246   -0.0000  -50.4581
  6.810  -17.8735    0.4595  -17.9241    0.4929  -17.8668    0.4770  -17.8808    0.4473  -17.8440    0.4988  -17.8599    0.5188   -0.0000  -50.4581
  6.820  -17.7788    0.4543  -17.8290    0.4874  -17.7723    0.4718  -17.7863    0.4421  -17.7497    0.4933  -17.7654    0.5130   -0.0000  -50.4581
  6.830  -17.6851    0.4492  -17.7348    0.4820  -17.6788    0.4667  -17.6927    0.4370  -17.6563    0.4880  -17.6718    0.5074   -0.0000  -50.4581
  6.840  -17.5924    0.4442  -17.6415    0.4767  -17.5861    0.4616  -17.6000    0.4321  -17.5638    0.4828  -17.5791    0.5019   -0.0000  -50.4581
  6.850  -17.5005    0.4393  -17.5491    0.4715  -17.4943    0.4567  -17.5082    0.4272  -17.4723    0.4776  -17.4873    0.4965   -0.0000  -50.4581
  6.860  -17.4095    0.4345  -17.4576    0.4665  -17.4035    0.4519  -17.4173    0.4224  -17.3816    0.4726  -17.3965    0.4911   -0.0000  -50.4581
  6.870  -17.3195    0.4298  -17.3671    0.4615  -17.3135    0.4472  -17.3272    0.4177  -17.2918    0.4676  -17.3065    0.4859   -0.0000  -50.4581
  6.880  -17.2302    0.4251  -17.2774    0.4566  -17.2244    0.4425  -17.2381    0.4130  -17.2029    0.4628  -17.2173    0.4808   -0.0000  -50.4581
  6.890  -17.1418    0.4206  -17.1885    0.4518  -17.1361    0.4379  -17.1497    0.4085  -17.1148    0.4580  -17.1290    0.4758   -0.0000  -50.4581
  6.900  -17.0543    0.4161  -17.1005    0.4471  -17.0486    0.4334  -17.0622    0.4041  -17.0275    0.4533  -17.0415    0.4708   -0.0000  -50.4581
  6.910  -16.9675    0.4118  -17.0133    0.4425  -16.9619    0.4290  -16.9755    0.3997  -16.9410    0.4488  -16.9549    0.4660   -0.0000  -50.4581
  6.920  -16.8816    0.4075  -16.9270    0.4380  -16.8761    0.4247  -16.8897    0.3954  -16.8553    0.4442  -16.8690    0.4613   -0.0000  -50.4581
  6.930  -16.7965    0.4033  -16.8414    0.4335  -16.7910    0.4205  -16.8046    0.3912  -16.7705    0.4398  -16.7840    0.4566   -0.0000  -50.4581
  6.940  -16.7121    0.3991  -16.7566    0.4291  -16.7068    0.4163  -16.7202    0.3871  -16.6864    0.4355  -16.6997    0.4520   -0.0000  -50.4581
  6.950  -16.6285    0.3951  -16.6726    0.4248  -16.6232    0.4122  -16.6367    0.3831  -16.6030    0.4312  -16.6162    0.4475   -0.0000  -50.4581
  6.960  -16.5456    0.3911  -16.5894    0.4206  -16.5405    0.4082  -16.5539    0.3791  -16.5204    0.4270  -16.5334    0.4431   -0.0000  -50.4581
  6.970  -16.4635    0.3872  -16.5069    0.4165  -16.4585    0.4042  -16.4718    0.3752  -16.4386    0.4229  -16.4514    0.4387   -0.0000  -50.4581
  6.980  -16.3821    0.3833  -16.4251    0.4124  -16.3772    0.4003  -16.3904    0.3713  -16.3574    0.4188  -16.3701    0.4345   -0.0000  -50.4581
  6.990  -16.3015    0.3795  -16.3441    0.4084  -16.2966    0.3965  -16.3098    0.3676  -16.2770    0.4148  -16.2895    0.4303   -0.0000  -50.4581
  7.000  -16.2215    0.3758  -16.2638    0.4045  -16.2167    0.3927  -16.2299    0.3638  -16.1973    0.4109  -16.2096    0.4262   -0.0000  -50.4581
  7.010  -16.1423    0.3722  -16.1842    0.4006  -16.1375    0.3891  -16.1507    0.3602  -16.1183    0.4071  -16.1305    0.4221   -0.0000  -50.4581
  7.020  -16.0637    0.3686  -16.1052    0.3968  -16.0590    0.3854  -16.0721    0.3566  -16.0399    0.4033  -16.0520    0.4181   -0.0000  -50.4581
  7.030  -15.9858    0.3650  -16.0270    0.3930  -15.9812    0.3818  -15.9942    0.3531  -15.9622    0.3995  -15.9742    0.4142   -0.0000  -50.4581
  7.040  -15.9085    0.3616  -15.9494    0.3894  -15.9040    0.3783  -15.9170    0.3496  -15.8852    0.3959  -15.8970    0.4104   -0.0000  -50.4581
  7.050  -15.8320    0.3582  -15.8725    0.3858  -15.8275    0.3749  -15.8405    0.3462  -15.8089    0.3923  -15.8205    0.4066   -0.0000  -50.4581
  7.060  -15.7560    0.3548  -15.7963    0.3822  -15.7516    0.3715  -15.7646    0.3429  -15.7332    0.3887  -15.7446    0.4028   -0.0000  -50.4581
  7.070  -15.6807    0.3515  -15.7207    0.3787  -15.6764    0.3681  -15.6893    0.3396  -15.6581    0.3852  -15.6694    0.3992   -0.0000  -50.4581
  7.080  -15.6060    0.3483  -15.6457    0.3752  -15.6018    0.3648  -15.6146    0.3363  -15.5836    0.3818  -15.5948    0.3956   -0.0000  -50.4581
  7.090  -15.5320    0.3451  -15.5714    0.3719  -15.5278    0.3616  -15.5406    0.3332  -15.5098    0.3784  -15.5208    0.3920   -0.0000  -50.4581
  7.100  -15.4585    0.3419  -15.4976    0.3685  -15.4544    0.3584  -15.4672    0.3300  -15.4365    0.3751  -15.4475    0.3885   -0.0000  -50.4581
  7.110  -15.3857    0.3388  -15.4245    0.3652  -15.3816    0.3552  -15.3943    0.3269  -15.3639    0.3718  -15.3747    0.3851   -0.0000  -50.4581
  7.120  -15.3134    0.3358  -15.3519    0.3620  -15.3094    0.3521  -15.3221    0.3239  -15.2918    0.3686  -15.3025    0.3817   -0.0000  -50.4581
  7.130  -15.2417    0.3328  -15.2800    0.3588  -15.2378    0.3491  -15.2504    0.3209  -15.2203    0.3654  -15.2309    0.3784   -0.0000  -50.4581
  7.140  -15.1706    0.3298  -15.2086    0.3557  -15.1667    0.3461  -15.1793    0.3180  -15.1494    0.3623  -15.1599    0.3751   -0.0000  -50.4581
  7.150  -15.1001    0.3269  -15.1378    0.3526  -15.0962    0.3431  -15.1088    0.3151  -15.0791    0.3592  -15.0894    0.3719   -0.0000  -50.4581
  7.160  -15.0301    0.3241  -15.0676    0.3496  -15.0263    0.3402  -15.0388    0.3122  -15.0093    0.3562  -15.0195    0.3687   -0.0000  -50.4581
  7.170  -14.9606    0.3213  -14.9979    0.3466  -14.9569    0.3374  -14.9694    0.3094  -14.9400    0.3532  -14.9501    0.3656   -0.0000  -50.4581
  7.180  -14.8918    0.3185  -14.9288    0.3436  -14.8881    0.3345  -14.9005    0.3066  -14.8713    0.3503  -14.8813    0.3625   -0.0000  -50.4581
  7.190  -14.8234    0.3158  -14.8602    0.3407  -14.8198    0.3318  -14.8322    0.3039  -14.8032    0.3474  -14.8131    0.3594   -0.0000  -50.4581
  7.200  -14.7556    0.3131  -14.7922    0.3379  -14.7520    0.3290  -14.7644    0.3012  -14.7355    0.3445  -14.7453    0.3565   -0.0000  -50.4581
  7.210  -14.6883    0.3104  -14.7246    0.3350  -14.6847    0.3263  -14.6971    0.2986  -14.6684    0.3417  -14.6781    0.3535   -0.0000  -50.4581
  7.220  -14.6215    0.3078  -14.6576    0.3323  -14.6180    0.3236  -14.6303    0.2960  -14.6018    0.3390  -14.6114    0.3506   -0.0000  -50.4581
  7.230  -14.5552    0.3053  -14.5911    0.3295  -14.5518    0.3210  -14.5640    0.2934  -14.5357    0.3362  -14.5451    0.3477   -0.0000  -50.4581
  7.240  -14.4894    0.3027  -14.5252    0.3268  -14.4860    0.3184  -14.4982    0.2909  -14.4701    0.3335  -14.4794    0.3449   -0.0000  -50.4581
  7.250  -14.4241    0.3002  -14.4597    0.3242  -14.4208    0.3159  -14.4330    0.2884  -14.4050    0.3309  -14.4142    0.3422   -0.0000  -50.4581
  7.260  -14.3593    0.2978  -14.3947    0.3216  -14.3560    0.3134  -14.3682    0.2859  -14.3403    0.3283  -14.3495    0.3394   -0.0000  -50.4581
  7.270  -14.2950    0.2953  -14.3302    0.3190  -14.2918    0.3109  -14.3039    0.2835  -14.2762    0.3257  -14.2853    0.3367   -0.0000  -50.4581
  7.280  -14.2311    0.2930  -14.2661    0.3164  -14.2280    0.3084  -14.2400    0.2811  -14.2125    0.3232  -14.2215    0.3341   -0.0000  -50.4581
  7.290  -14.1678    0.2906  -14.2026    0.3139  -14.1646    0.3060  -14.1766    0.2788  -14.1493    0.3207  -14.1582    0.3314   -0.0000  -50.4581
  7.300  -14.1048    0.2883  -14.1395    0.3114  -14.1017    0.3037  -14.1137    0.2764  -14.0866    0.3182  -14.0953    0.3289   -0.0000  -50.4581
  7.310  -14.0424    0.2860  -14.0769    0.3090  -14.0393    0.3013  -14.0513    0.2741  -14.0243    0.3158  -14.0330    0.3263   -0.0000  -50.4581
  7.320  -13.9804    0.2837  -14.0147    0.3066  -13.9774    0.2990  -13.9893    0.2719  -13.9624    0.3134  -13.9710    0.3238   -0.0000  -50.4581
  7.330  -13.9188    0.2815  -13.9530    0.3042  -13.9158    0.2967  -13.9277    0.2697  -13.9010    0.3110  -13.9095    0.3213   -0.0000  -50.4581
  7.340  -13.8577    0.2793  -13.8917    0.3019  -13.8548    0.2945  -13.8666    0.2675  -13.8401    0.3087  -13.8485    0.3189   -0.0000  -50.4581
  7.350  -13.7970    0.2772  -13.8309    0.2996  -13.7941    0.2923  -13.8059    0.2653  -13.7795    0.3064  -13.7879    0.3165   -0.0000  -50.4581
  7.360  -13.7368    0.2750  -13.7705    0.2973  -13.7339    0.2901  -13.7457    0.2632  -13.7194    0.3041  -13.7277    0.3141   -0.0000  -50.4581
  7.370  -13.6769    0.2729  -13.7105    0.2950  -13.6741    0.2879  -13.6858    0.2611  -13.6598    0.3019  -13.6679    0.3118   -0.0000  -50.4581
  7.380  -13.6175    0.2709  -13.6509    0.2928  -13.6147    0.2858  -13.6264    0.2590  -13.6005    0.2997  -13.6086    0.3094   -0.0000  -50.4581
  7.390  -13.5585    0.2688  -13.5918    0.2906  -13.5558    0.2837  -13.5674    0.2569  -13.5417    0.2975  -13.5497    0.3072   -0.0000  -50.4581
  7.400  -13.4999    0.2668  -13.5331    0.2885  -13.4972    0.2816  -13.5089    0.2549  -13.4832    0.2953  -13.4912    0.3049   -0.0000  -50.4581
  7.410  -13.4417    0.2648  -13.4748    0.2863  -13.4391    0.2796  -13.4507    0.2529  -13.4252    0.2932  -13.4330    0.3027   -0.0000  -50.4581
  7.420  -13.3839    0.2628  -13.4168    0.2842  -13.3813    0.2775  -13.3929    0.2509  -13.3675    0.2911  -13.3753    0.3005   -0.0000  -50.4581
  7.430  -13.3265    0.2609  -13.3593    0.2822  -13.3239    0.2755  -13.3355    0.2490  -13.3103    0.2890  -13.3180    0.2983   -0.0000  -50.4581
  7.440  -13.2695    0.2590  -13.3022    0.2801  -13.2670    0.2736  -13.2785    0.2470  -13.2534    0.2870  -13.2611    0.2962   -0.0000  -50.4581
  7.450  -13.2129    0.2571  -13.2455    0.2781  -13.2104    0.2716  -13.2219    0.2452  -13.1970    0.2850  -13.2045    0.2941   -0.0000  -50.4581
  7.460  -13.1567    0.2552  -13.1891    0.2761  -13.1542    0.2697  -13.1656    0.2433  -13.1409    0.2830  -13.1484    0.2920   -0.0000  -50.4581
  7.470  -13.1008    0.2534  -13.1332    0.2741  -13.0983    0.2678  -13.1098    0.2414  -13.0851    0.2811  -13.0926    0.2900   -0.0000  -50.4581
  7.480  -13.0453    0.2516  -13.0776    0.2722  -13.0429    0.2659  -13.0543    0.2396  -13.0298    0.2791  -13.0371    0.2880   -0.0000  -50.4581
  7.490  -12.9902    0.2498  -13.0224    0.2703  -12.9878    0.2641  -12.9991    0.2378  -12.9748    0.2772  -12.9821    0.2860   -0.0000  -50.4581
  7.500  -12.9354    0.2480  -12.9675    0.2684  -12.9330    0.2623  -12.9444    0.2360  -12.9202    0.2753  -12.9274    0.2840   -0.0000  -50.4581
  7.510  -12.8810    0.2463  -12.9130    0.2665  -12.8787    0.2605  -12.8900    0.2343  -12.8659    0.2735  -12.8731    0.2821   -0.0000  -50.4581
  7.520  -12.8269    0.2446  -12.8589    0.2646  -12.8246    0.2587  -12.8359    0.2325  -12.8120    0.2716  -12.8191    0.2801   -0.0000  -50.4581
  7.530  -12.7732    0.2429  -12.8051    0.2628  -12.7710    0.2569  -12.7822    0.2308  -12.7584    0.2698  -12.7654    0.2782   -0.0000  -50.4581
  7.540  -12.7199    0.2412  -12.7517    0.2610  -12.7176    0.2552  -12.7289    0.2291  -12.7052    0.2680  -12.7122    0.2764   -0.0000  -50.4581
  7.550  -12.6669    0.2395  -12.6986    0.2592  -12.6646    0.2535  -12.6759    0.2274  -12.6523    0.2663  -12.6592    0.2745   -0.0000  -50.4581
  7.560  -12.6142    0.2379  -12.6458    0.2575  -12.6120    0.2518  -12.6232    0.2258  -12.5998    0.2645  -12.6066    0.2727   -0.0000  -50.4581
  7.570  -12.5618    0.2363  -12.5934    0.2557  -12.5597    0.2501  -12.5708    0.2241  -12.5476    0.2628  -12.5544    0.2709   -0.0000  -50.4581
  7.580  -12.5098    0.2347  -12.5414    0.2540  -12.5077    0.2485  -12.5188    0.2225  -12.4957    0.2611  -12.5024    0.2691   -0.0000  -50.4581
  7.590  -12.4581    0.2331  -12.4896    0.2523  -12.4560    0.2469  -12.4671    0.2209  -12.4442    0.2594  -12.4508    0.2674   -0.0000  -50.4581
  7.600  -12.4068    0.2316  -12.4382    0.2506  -12.4047    0.2452  -12.4158    0.2193  -12.3929    0.2578  -12.3995    0.2656   -0.0000  -50.4581
  7.610  -12.3557    0.2300  -12.3871    0.2490  -12.3537    0.2437  -12.3647    0.2178  -12.3420    0.2561  -12.3486    0.2639   -0.0000  -50.4581
  7.620  -12.3050    0.2285  -12.3363    0.2474  -12.3030    0.2421  -12.3140    0.2162  -12.2914    0.2545  -12.2979    0.2623   -0.0000  -50.4581
  7.630  -12.2546    0.2270  -12.2859    0.2457  -12.2526    0.2405  -12.2636    0.2147  -12.2411    0.2529  -12.2476    0.2606   -0.0000  -50.4581
  7.640  -12.2045    0.2256  -12.2357    0.2441  -12.2025    0.2390  -12.2135    0.2132  -12.1912    0.2513  -12.1975    0.2589   -0.0000  -50.4581
  7.650  -12.1547    0.2241  -12.1859    0.2426  -12.1527    0.2375  -12.1637    0.2117  -12.1415    0.2498  -12.1478    0.2573   -0.0000  -50.4581
  7.660  -12.1052    0.2227  -12.1364    0.2410  -12.1032    0.2360  -12.1142    0.2103  -12.0921    0.2482  -12.0984    0.2557   -0.0000  -50.4581
  7.670  -12.0560    0.2212  -12.0872    0.2395  -12.0541    0.2345  -12.0650    0.2088  -12.0431    0.2467  -12.0493    0.2541   -0.0000  -50.4581
  7.680  -12.0071    0.2198  -12.0382    0.2379  -12.0052    0.2330  -12.0161    0.2074  -11.9943    0.2452  -12.0004    0.2526   -0.0000  -50.4581
  7.690  -11.9585    0.2184  -11.9896    0.2364  -11.9566    0.2316  -11.9675    0.2059  -11.9458    0.2437  -11.9519    0.2510   -0.0000  -50.4581
  7.700  -11.9101    0.2171  -11.9413    0.2350  -11.9083    0.2302  -11.9192    0.2045  -11.8976    0.2423  -11.9037    0.2495   -0.0000  -50.4581
  7.710  -11.8621    0.2157  -11.8932    0.2335  -11.8603    0.2288  -11.8712    0.2031  -11.8497    0.2408  -11.8557    0.2480   -0.0000  -50.4581
  7.720  -11.8143    0.2144  -11.8455    0.2320  -11.8125    0.2274  -11.8234    0.2018  -11.8021    0.2394  -11.8080    0.2465   -0.0000  -50.4581
  7.730  -11.7669    0.2131  -11.7980    0.2306  -11.7651    0.2260  -11.7760    0.2004  -11.7547    0.2380  -11.7606    0.2450   -0.0000  -50.4581
  7.740  -11.7197    0.2118  -11.7508    0.2292  -11.7179    0.2246  -11.7288    0.1991  -11.7077    0.2366  -11.7135    0.2436   -0.0000  -50.4581
  7.750  -11.6727    0.2105  -11.7039    0.2278  -11.6710    0.2233  -11.6818    0.1977  -11.6609    0.2352  -11.6667    0.2421   -0.0000  -50.4581
  7.760  -11.6261    0.2092  -11.6572    0.2264  -11.6244    0.2220  -11.6352    0.1964  -11.6143    0.2339  -11.6201    0.2407   -0.0000  -50.4581
  7.770  -11.5797    0.2079  -11.6109    0.2250  -11.5780    0.2207  -11.5888    0.1951  -11.5681    0.2325  -11.5738    0.2393   -0.0000  -50.4581
  7.780  -11.5336    0.2067  -11.5647    0.2237  -11.5319    0.2194  -11.5427    0.1938  -11.5221    0.2312  -11.5277    0.2379   -0.0000  -50.4581
  7.790  -11.4877    0.2055  -11.5189    0.2224  -11.4861    0.2181  -11.4968    0.1926  -11.4763    0.2299  -11.4820    0.2366   -0.0000  -50.4581
  7.800  -11.4421    0.2043  -11.4733    0.2210  -11.4405    0.2168  -11.4512    0.1913  -11.4309    0.2286  -11.4364    0.2352   -0.0000  -50.4581
  7.810  -11.3967    0.2031  -11.4280    0.2197  -11.3951    0.2156  -11.4059    0.1900  -11.3856    0.2273  -11.3912    0.2339   -0.0000  -50.4581
  7.820  -11.3516    0.2019  -11.3830    0.2184  -11.3501    0.2143  -11.3608    0.1888  -11.3407    0.2261  -11.3462    0.2326   -0.0000  -50.4581
  7.830  -11.3068    0.2007  -11.3381    0.2172  -11.3052    0.2131  -11.3160    0.1876  -11.2960    0.2248  -11.3014    0.2313   -0.0000  -50.4581
  7.840  -11.2622    0.1996  -11.2936    0.2159  -11.2606    0.2119  -11.2714    0.1864  -11.2515    0.2236  -11.2569    0.2300   -0.0000  -50.4581
  7.850  -11.2178    0.1984  -11.2493    0.2147  -11.2163    0.2107  -11.2271    0.1852  -11.2073    0.2224  -11.2126    0.2288   -0.0000  -50.4581
  7.860  -11.1737    0.1973  -11.2052    0.2134  -11.1722    0.2095  -11.1830    0.1840  -11.1633    0.2212  -11.1686    0.2275   -0.0000  -50.4581
  7.870  -11.1299    0.1962  -11.1614    0.2122  -11.1284    0.2084  -11.1391    0.1828  -11.1195    0.2200  -11.1248    0.2263   -0.0000  -50.4581
  7.880  -11.0862    0.1951  -11.1178    0.2110  -11.0847    0.2072  -11.0955    0.1817  -11.0760    0.2189  -11.0812    0.2251   -0.0000  -50.4581
  7.890  -11.0428    0.1940  -11.0745    0.2098  -11.0414    0.2061  -11.0521    0.1805  -11.0327    0.2177  -11.0379    0.2239   -0.0000  -50.4581
  7.900  -10.9996    0.1930  -11.0314    0.2086  -10.9982    0.2049  -11.0089    0.1794  -10.9897    0.2166  -10.9949    0.2227   -0.0000  -50.4581
  7.910  -10.9567    0.1919  -10.9885    0.2075  -10.9553    0.2038  -10.9660    0.1783  -10.9469    0.2155  -10.9520    0.2215   -0.0000  -50.4581
  7.920  -10.9140    0.1909  -10.9459    0.2063  -10.9126    0.2027  -10.9233    0.1772  -10.9043    0.2144  -10.9094    0.2204   -0.0000  -50.4581
  7.930  -10.8715    0.1898  -10.9035    0.2052  -10.8701    0.2017  -10.8808    0.1761  -10.8619    0.2133  -10.8670    0.2192   -0.0000  -50.4581
  7.940  -10.8292    0.1888  -10.8613    0.2041  -10.8278    0.2006  -10.8386    0.1750  -10.8198    0.2122  -10.8248    0.2181   -0.0000  -50.4581
  7.950  -10.7872    0.1878  -10.8193    0.2030  -10.7858    0.1995  -10.7965    0.1739  -10.7779    0.2111  -10.7828    0.2170   -0.0000  -50.4581
  7.960  -10.7453    0.1868  -10.7776    0.2019  -10.7440    0.1985  -10.7547    0.1728  -10.7362    0.2101  -10.7411    0.2159   -0.0000  -50.4581
  7.970  -10.7037    0.1858  -10.7361    0.2008  -10.7024    0.1975  -10.7131    0.1718  -10.6947    0.2090  -10.6996    0.2148   -0.0000  -50.4581
  7.980  -10.6623    0.1849  -10.6948    0.1997  -10.6610    0.1964  -10.6717    0.1707  -10.6534    0.2080  -10.6583    0.2138   -0.0000  -50.4581
  7.990  -10.6211    0.1839  -10.6537    0.1987  -10.6198    0.1954  -10.6306    0.1697  -10.6123    0.2070  -10.6171    0.2127   -0.0000  -50.4581
  8.000  -10.5801    0.1830  -10.6128    0.1976  -10.5788    0.1944  -10.5896    0.1687  -10.5715    0.2060  -10.5763    0.2117   -0.0000  -50.4581
  8.010  -10.5393    0.1821  -10.5722    0.1966  -10.5380    0.1935  -10.5488    0.1677  -10.5308    0.2051  -10.5356    0.2107   -0.0000  -50.4581
  8.020  -10.4987    0.1812  -10.5317    0.1956  -10.4975    0.1925  -10.5082    0.1667  -10.4904    0.2041  -10.4951    0.2096   -0.0000  -50.4581
  8.030  -10.4583    0.1802  -10.4914    0.1946  -10.4571    0.1915  -10.4679    0.1657  -10.4501    0.2031  -10.4548    0.2087   -0.0000  -50.4581
  8.040  -10.4181    0.1794  -10.4514    0.1936  -10.4169    0.1906  -10.4277    0.1647  -10.4100    0.2022  -10.4147    0.2077   -0.0000  -50.4581
  8.050  -10.3781    0.1785  -10.4115    0.1926  -10.3769    0.1897  -10.3877    0.1637  -10.3702    0.2013  -10.3748    0.2067   -0.0000  -50.4581
  8.060  -10.3383    0.1776  -10.3719    0.1916  -10.3371    0.1887  -10.3479    0.1627  -10.3305    0.2004  -10.3351    0.2058   -0.0000  -50.4581
  8.070  -10.2987    0.1768  -10.3324    0.1907  -10.2975    0.1878  -10.3084    0.1618  -10.2910    0.1995  -10.2956    0.2048   -0.0000  -50.4581
  8.080  -10.2593    0.1759  -10.2932    0.1897  -10.2581    0.1869  -10.2690    0.1608  -10.2517    0.1986  -10.2563    0.2039   -0.0000  -50.4581
  8.090  -10.2200    0.1751  -10.2541    0.1888  -10.2189    0.1860  -10.2297    0.1599  -10.2126    0.1977  -10.2171    0.2030   -0.0000  -50.4581
  8.100  -10.1810    0.1743  -10.2152    0.1879  -10.1798    0.1852  -10.1907    0.1590  -10.1737    0.1969  -10.1782    0.2021   -0.0000  -50.4581
  8.110  -10.1421    0.1735  -10.1765    0.1869  -10.1409    0.1843  -10.1519    0.1580  -10.1350    0.1960  -10.1394    0.2012   -0.0000  -50.4581
  8.120  -10.1034    0.1727  -10.1380    0.1860  -10.1022    0.1835  -10.1132    0.1571  -10.0964    0.1952  -10.1008    0.2004   -0.0000  -50.4581
  8.130  -10.0649    0.1719  -10.0997    0.1851  -10.0637    0.1826  -10.0747    0.1562  -10.0580    0.1944  -10.0624    0.1995   -0.0000  -50.4581
  8.140  -10.0265    0.1711  -10.0615    0.1843  -10.0254    0.1818  -10.0364    0.1553  -10.0198    0.1936  -10.0242    0.1987   -0.0000  -50.4581
  8.150   -9.9883    0.1704  -10.0236    0.1834   -9.9872    0.1810   -9.9982    0.1544   -9.9818    0.1928   -9.9861    0.1978   -0.0000  -50.4581
  8.160   -9.9503    0.1696   -9.9858    0.1825   -9.9492    0.1802   -9.9602    0.1536   -9.9439    0.1920   -9.9482    0.1970   -0.0000  -50.4581
  8.170   -9.9125    0.1689   -9.9482    0.1817   -9.9114    0.1794   -9.9224    0.1527   -9.9062    0.1913   -9.9105    0.1962   -0.0000  -50.4581
  8.180   -9.8748    0.1682   -9.9107    0.1809   -9.8737    0.1786   -9.8848    0.1518   -9.8687    0.1905   -9.8729    0.1955   -0.0000  -50.4581
  8.190   -9.8373    0.1675   -9.8734    0.1800   -9.8362    0.1778   -9.8473    0.1510   -9.8313    0.1898   -9.8355    0.1947   -0.0000  -50.4581
  8.200   -9.7999    0.1668   -9.8363    0.1792   -9.7988    0.1771   -9.8100    0.1501   -9.7941    0.1891   -9.7983    0.1939   -0.0000  -50.4581
  8.210   -9.7627    0.1661   -9.7994    0.1784   -9.7616    0.1764   -9.7728    0.1493   -9.7571    0.1884   -9.7612    0.1932   -0.0000  -50.4581
  8.220   -9.7257    0.1654   -9.7626    0.1776   -9.7246    0.1756   -9.7358    0.1485   -9.7202    0.1877   -9.7243    0.1925   -0.0000  -50.4581
  8.230   -9.6888    0.1648   -9.7260    0.1769   -9.6877    0.1749   -9.6990    0.1476   -9.6835    0.1870   -9.6875    0.1918   -0.0000  -50.4581
  8.240   -9.6520    0.1641   -9.6895    0.1761   -9.6510    0.1742   -9.6623    0.1468   -9.6469    0.1863   -9.6509    0.1911   -0.0000  -50.4581
  8.250   -9.6154    0.1635   -9.6532    0.1753   -9.6144    0.1735   -9.6257    0.1460   -9.6104    0.1857   -9.6145    0.1904   -0.0000  -50.4581
  8.260   -9.5790    0.1628   -9.6171    0.1746   -9.5779    0.1728   -9.5893    0.1452   -9.5742    0.1851   -9.5782    0.1897   -0.0000  -50.4581
  8.270   -9.5427    0.1622   -9.5811    0.1739   -9.5416    0.1721   -9.5531    0.1444   -9.5380    0.1844   -9.5420    0.1891   -0.0000  -50.4581
  8.280   -9.5065    0.1616   -9.5453    0.1731   -9.5055    0.1715   -9.5169    0.1437   -9.5020    0.1838   -9.5060    0.1884   -0.0000  -50.4581
  8.290   -9.4705    0.1610   -9.5096    0.1724   -9.4695    0.1708   -9.4810    0.1429   -9.4662    0.1833   -9.4701    0.1878   -0.0000  -50.4581
  8.300   -9.4346    0.1605   -9.4740    0.1717   -9.4336    0.1702   -9.4451    0.1421   -9.4305    0.1827   -9.4344    0.1872   -0.0000  -50.4581
  8.310   -9.3988    0.1599   -9.4386    0.1710   -9.3978    0.1696   -9.4094    0.1413   -9.3949    0.1821   -9.3987    0.1866   -0.0000  -50.4581
  8.320   -9.3632    0.1594   -9.4034    0.1704   -9.3622    0.1690   -9.3739    0.1406   -9.3594    0.1816   -9.3633    0.1861   -0.0000  -50.4581
  8.330   -9.3277    0.1588   -9.3683    0.1697   -9.3267    0.1684   -9.3384    0.1398   -9.3241    0.1810   -9.3279    0.1855   -0.0000  -50.4581
  8.340   -9.2923    0.1583   -9.3333    0.1690   -9.2913    0.1678   -9.3031    0.1391   -9.2889    0.1805   -9.2927    0.1850   -0.0000  -50.4581
  8.350   -9.2571    0.1578   -9.2984    0.1684   -9.2561    0.1672   -9.2679    0.1384   -9.2539    0.1800   -9.2576    0.1844   -0.0000  -50.4581
  8.360   -9.2219    0.1573   -9.2637    0.1678   -9.2210    0.1667   -9.2329    0.1376   -9.2189    0.1796   -9.2227    0.1839   -0.0000  -50.4581
  8.370   -9.1869    0.1568   -9.2292    0.1672   -9.1860    0.1661   -9.1979    0.1369   -9.1841    0.1791   -9.1879    0.1834   -0.0000  -50.4581
  8.380   -9.1520    0.1564   -9.1947    0.1665   -9.1511    0.1656   -9.1631    0.1362   -9.1494    0.1786   -9.1531    0.1830   -0.0000  -50.4581
  8.390   -9.1173    0.1559   -9.1604    0.1659   -9.1163    0.1651   -9.1284    0.1355   -9.1149    0.1782   -9.1185    0.1825   -0.0000  -50.4581
  8.400   -9.0826    0.1555   -9.1262    0.1654   -9.0816    0.1646   -9.0938    0.1348   -9.0804    0.1778   -9.0841    0.1821   -0.0000  -50.4581
  8.410   -9.0480    0.1551   -9.0921    0.1648   -9.0471    0.1641   -9.0593    0.1341   -9.0460    0.1774   -9.0497    0.1816   -0.0000  -50.4581
  8.420   -9.0136    0.1546   -9.0582    0.1642   -9.0126    0.1636   -9.0249    0.1334   -9.0118    0.1770   -9.0154    0.1812   -0.0000  -50.4581
  8.430   -8.9792    0.1543   -9.0244    0.1637   -8.9782    0.1631   -8.9906    0.1327   -8.9777    0.1767   -8.9813    0.1808   -0.0000  -50.4581
  8.440   -8.9450    0.1539   -8.9907    0.1631   -8.9440    0.1627   -8.9565    0.1320   -8.9436    0.1763   -8.9472    0.1805   -0.0000  -50.4581
  8.450   -8.9108    0.1535   -8.9571    0.1626   -8.9098    0.1622   -8.9224    0.1314   -8.9097    0.1760   -8.9133    0.1801   -0.0000  -50.4581
  8.460   -8.8767    0.1532   -8.9236    0.1621   -8.8758    0.1618   -8.8884    0.1307   -8.8759    0.1757   -8.8794    0.1798   -0.0000  -50.4581
  8.470   -8.8427    0.1529   -8.8902    0.1616   -8.8418    0.1614   -8.8545    0.1301   -8.8421    0.1754   -8.8457    0.1795   -0.0000  -50.4581
  8.480   -8.8089    0.1525   -8.8569    0.1611   -8.8079    0.1610   -8.8207    0.1294   -8.8085    0.1752   -8.8120    0.1792   -0.0000  -50.4581
  8.490   -8.7750    0.1523   -8.8238    0.1607   -8.7741    0.1607   -8.7870    0.1288   -8.7749    0.1749   -8.7784    0.1789   -0.0000  -50.4581
  8.500   -8.7413    0.1520   -8.7907    0.1602   -8.7404    0.1603   -8.7534    0.1281   -8.7415    0.1747   -8.7449    0.1787   -0.0000  -50.4581
  8.510   -8.7077    0.1517   -8.7577    0.1597   -8.7067    0.1600   -8.7198    0.1275   -8.7081    0.1745   -8.7115    0.1785   -0.0000  -50.4581
  8.520   -8.6741    0.1515   -8.7248    0.1593   -8.6731    0.1596   -8.6864    0.1269   -8.6748    0.1743   -8.6782    0.1783   -0.0000  -50.4581
  8.530   -8.6406    0.1513   -8.6921    0.1589   -8.6396    0.1593   -8.6530    0.1263   -8.6416    0.1742   -8.6450    0.1781   -0.0000  -50.4581
  8.540   -8.6071    0.1511   -8.6594    0.1585   -8.6062    0.1591   -8.6196    0.1256   -8.6084    0.1741   -8.6118    0.1780   -0.0000  -50.4581
  8.550   -8.5738    0.1509   -8.6268    0.1581   -8.5728    0.1588   -8.5864    0.1250   -8.5753    0.1740   -8.5787    0.1778   -0.0000  -50.4581
  8.560   -8.5405    0.1507   -8.5943    0.1577   -8.5394    0.1585   -8.5532    0.1244   -8.5423    0.1739   -8.5456    0.1777   -0.0000  -50.4581
  8.570   -8.5072    0.1506   -8.5619    0.1574   -8.5062    0.1583   -8.5200    0.1238   -8.5093    0.1739   -8.5127    0.1777   -0.0000  -50.4581
  8.580   -8.4740    0.1505   -8.5295    0.1570   -8.4729    0.1581   -8.4869    0.1233   -8.4764    0.1738   -8.4797    0.1776   -0.0000  -50.4581
  8.590   -8.4408    0.1504   -8.4972    0.1567   -8.4398    0.1579   -8.4539    0.1227   -8.4436    0.1738   -8.4469    0.1776   -0.0000  -50.4581
  8.600   -8.4077    0.1504   -8.4650    0.1564   -8.4066    0.1578   -8.4209    0.1221   -8.4108    0.1739   -8.4141    0.1776   -0.0000  -50.4581
  8.610   -8.3746    0.1503   -8.4329    0.1561   -8.3735    0.1576   -8.3879    0.1215   -8.3781    0.1740   -8.3813    0.1777   -0.0000  -50.4581
  8.620   -8.3415    0.1503   -8.4008    0.1558   -8.3405    0.1575   -8.3550    0.1210   -8.3454    0.1741   -8.3486    0.1778   -0.0000  -50.4581
  8.630   -8.3085    0.1503   -8.3689    0.1556   -8.3074    0.1574   -8.3221    0.1204   -8.3127    0.1742   -8.3159    0.1779   -0.0000  -50.4581
  8.640   -8.2755    0.1504   -8.3369    0.1553   -8.2744    0.1573   -8.2893    0.1199   -8.2801    0.1744   -8.2833    0.1780   -0.0000  -50.4581
  8.650   -8.2425    0.1505   -8.3050    0.1551   -8.2414    0.1573   -8.2565    0.1193   -8.2475    0.1746   -8.2507    0.1782   -0.0000  -50.4581
  8.660   -8.2095    0.1506   -8.2732    0.1549   -8.2084    0.1573   -8.2236    0.1188   -8.2149    0.1748   -8.2181    0.1784   -0.0000  -50.4581
  8.670   -8.1766    0.1507   -8.2414    0.1547   -8.1754    0.1573   -8.1908    0.1183   -8.1823    0.1751   -8.1855    0.1787   -0.0000  -50.4581
  8.680   -8.1436    0.1509   -8.2097    0.1545   -8.1424    0.1573   -8.1580    0.1177   -8.1498    0.1754   -8.1529    0.1790   -0.0000  -50.4581
  8.690   -8.1106    0.1511   -8.1780    0.1544   -8.1094    0.1574   -8.1252    0.1172   -8.1173    0.1758   -8.1204    0.1793   -0.0000  -50.4581
  8.700   -8.0777    0.1513   -8.1464    0.1543   -8.0764    0.1575   -8.0924    0.1167   -8.0847    0.1762   -8.0878    0.1797   -0.0000  -50.4581
  8.710   -8.0447    0.1516   -8.1148    0.1542   -8.0434    0.1577   -8.0596    0.1162   -8.0522    0.1766   -8.0553    0.1802   -0.0000  -50.4581
  8.720   -8.0116    0.1519   -8.0832    0.1541   -8.0103    0.1578   -8.0268    0.1157   -8.0197    0.1771   -8.0227    0.1806   -0.0000  -50.4581
  8.730   -7.9786    0.1523   -8.0516    0.1541   -7.9772    0.1580   -7.9939    0.1152   -7.9871    0.1777   -7.9902    0.1812   -0.0000  -50.4581
  8.740   -7.9455    0.1527   -8.0201    0.1540   -7.9441    0.1583   -7.9610    0.1147   -7.9545    0.1783   -7.9576    0.1818   -0.0000  -50.4581
  8.750   -7.9123    0.1532   -7.9886    0.1540   -7.9109    0.1586   -7.9280    0.1143   -7.9219    0.1790   -7.9250    0.1824   -0.0000  -50.4581
  8.760   -7.8791    0.1537   -7.9571    0.1541   -7.8776    0.1589   -7.8951    0.1138   -7.8893    0.1797   -7.8923    0.1831   -0.0000  -50.4581
  8.770   -7.8458    0.1542   -7.9256    0.1541   -7.8443    0.1593   -7.8620    0.1133   -7.8566    0.1805   -7.8596    0.1839   -0.0000  -50.4581
  8.780   -7.8125    0.1549   -7.8941    0.1542   -7.8109    0.1597   -7.8289    0.1129   -7.8239    0.1813   -7.8269    0.1847   -0.0000  -50.4581
  8.790   -7.7791    0.1555   -7.8626    0.1543   -7.7774    0.1602   -7.7957    0.1125   -7.7911    0.1823   -7.7941    0.1856   -0.0000  -50.4581
  8.800   -7.7456    0.1563   -7.8311    0.1545   -7.7438    0.1607   -7.7624    0.1120   -7.7582    0.1832   -7.7612    0.1866   -0.0000  -50.4581
  8.810   -7.7119    0.1571   -7.7995    0.1547   -7.7101    0.1613   -7.7290    0.1116   -7.7253    0.1843   -7.7282    0.1876   -0.0000  -50.4581
  8.820   -7.6782    0.1579   -7.7680    0.1549   -7.6763    0.1619   -7.6955    0.1112   -7.6922    0.1855   -7.6952    0.1888   -0.0000  -50.4581
  8.830   -7.6443    0.1589   -7.7364    0.1551   -7.6424    0.1626   -7.6619    0.1108   -7.6591    0.1867   -7.6621    0.1900   -0.0000  -50.4581
  8.840   -7.6103    0.1599   -7.7048    0.1554   -7.6083    0.1634   -7.6281    0.1104   -7.6259    0.1880   -7.6288    0.1913   -0.0000  -50.4581
  8.850   -7.5761    0.1610   -7.6731    0.1558   -7.5740    0.1642   -7.5942    0.1100   -7.5925    0.1895   -7.5954    0.1927   -0.0000  -50.4581
  8.860   -7.5418    0.1622   -7.6414    0.1561   -7.5396    0.1651   -7.5602    0.1097   -7.5591    0.1910   -7.5619    0.1942   -0.0000  -50.4581
  8.870   -7.5073    0.1635   -7.6096    0.1565   -7.5049    0.1661   -7.5259    0.1093   -7.5254    0.1926   -7.5283    0.1958   -0.0000  -50.4581
  8.880   -7.4725    0.1649   -7.5778    0.1570   -7.4701    0.1671   -7.4915    0.1090   -7.4916    0.1944   -7.4945    0.1976   -0.0000  -50.4581
  8.890   -7.4376    0.1663   -7.5459    0.1575   -7.4350    0.1683   -7.4569    0.1086   -7.4577    0.1963   -7.4605    0.1994   -0.0000  -50.4581
  8.900   -7.4024    0.1680   -7.5139    0.1581   -7.3997    0.1695   -7.4220    0.1083   -7.4235    0.1983   -7.4264    0.2014   -0.0000  -50.4581
  8.910   -7.3670    0.1697   -7.4818    0.1587   -7.3641    0.1709   -7.3868    0.1080   -7.3892    0.2005   -7.3920    0.2036   -0.0000  -50.4581
  8.920   -7.3313    0.1716   -7.4496    0.1594   -7.3282    0.1723   -7.3514    0.1077   -7.3546    0.2028   -7.3574    0.2059   -0.0000  -50.4581
  8.930   -7.2952    0.1736   -7.4172    0.1601   -7.2920    0.1739   -7.3157    0.1075   -7.3198    0.2052   -7.3226    0.2084   -0.0000  -50.4581
  8.940   -7.2589    0.1757   -7.3848    0.1609   -7.2554    0.1756   -7.2797    0.1072   -7.2847    0.2079   -7.2875    0.2110   -0.0000  -50.4581
  8.950   -7.2222    0.1781   -7.3522    0.1618   -7.2185    0.1774   -7.2433    0.1070   -7.2494    0.2108   -7.2522    0.2138   -0.0001  -50.4581
  8.960   -7.1851    0.1806   -7.3195    0.1628   -7.1812    0.1794   -7.2066    0.1068   -7.2137    0.2138   -7.2165    0.2169   -0.0004  -50.4581
  8.970   -7.1477    0.1833   -7.2865    0.1638   -7.1434    0.1815   -7.1694    0.1066   -7.1777    0.2171   -7.1805    0.2201   -0.0011  -50.4581
  8.980   -7.1097    0.1862   -7.2535    0.1649   -7.1052    0.1838   -7.1319    0.1065   -7.1414    0.2206   -7.1441    0.2236   -0.0028  -50.4581
  8.990   -7.0713    0.1894   -7.2202    0.1661   -7.0665    0.1863   -7.0938    0.1064   -7.1047    0.2244   -7.1074    0.2274   -0.0070  -50.4581
  9.000   -7.0324    0.1928   -7.1867    0.1674   -7.0272    0.1890   -7.0552    0.1063   -7.0675    0.2284   -7.0703    0.2314   -0.0170  -50.4581
  9.010   -6.9930    0.1964   -7.1529    0.1688   -6.9873    0.1919   -7.0160    0.1062   -7.0300    0.2328   -7.0327    0.2358   -0.0397  -50.4581
  9.020   -6.9529    0.2004   -7.1190    0.1702   -6.9468    0.1950   -6.9762    0.1062   -6.9919    0.2375   -6.9946    0.2405   -0.0888  -50.4581
  9.030   -6.9122    0.2047   -7.0847    0.1719   -6.9056    0.1984   -6.9358    0.1062   -6.9534    0.2426   -6.9561    0.2455   -0.1911  -50.4582
  9.040   -6.8708    0.2094   -7.0502    0.1736   -6.8636    0.2021   -6.8946    0.1063   -6.9142    0.2480   -6.9169    0.2510   -0.3954  -50.4584
  9.050   -6.8286    0.2144   -7.0153    0.1754   -6.8208    0.2061   -6.8527    0.1064   -6.8745    0.2539   -6.8772    0.2569   -0.7872  -50.4587
  9.060   -6.7857    0.2199   -6.9801    0.1774   -6.7771    0.2104   -6.8099    0.1066   -6.8342    0.2603   -6.8368    0.2632   -1.5088  -50.4592
  9.070   -6.7418    0.2259   -6.9446    0.1796   -6.7325    0.2152   -6.7661    0.1068   -6.7931    0.2672   -6.7958    0.2701   -2.7879  -50.4602
  9.080   -6.6970    0.2325   -6.9087    0.1819   -6.6867    0.2203   -6.7214    0.1071   -6.7513    0.2747   -6.7539    0.2776   -4.9748  -50.4621
  9.090   -6.6511    0.2396   -6.8723    0.1844   -6.6398    0.2259   -6.6755    0.1075   -6.7087    0.2829   -6.7113    0.2857   -8.5936  -50.4652
  9.100   -6.6041    0.2474   -6.8355    0.1871   -6.5917    0.2320   -6.6284    0.1080   -6.6652    0.2917   -6.6678    0.2946  -14.4137  -50.4705
  9.110   -6.5559    0.2559   -6.7982    0.1900   -6.5421    0.2387   -6.5799    0.1087   -6.6207    0.3014   -6.6233    0.3042  -23.5450  -50.4792
  9.120   -6.5064    0.2653   -6.7604    0.1931   -6.4910    0.2461   -6.5300    0.1094   -6.5752    0.3120   -6.5779    0.3148  -37.5480  -50.4930
  9.130   -6.4554    0.2756   -6.7220    0.1965   -6.4383    0.2542   -6.4784    0.1103   -6.5286    0.3235   -6.5313    0.3263  -58.5075  -50.5145
  9.140   -6.4028    0.2869   -6.6830    0.2001   -6.3837    0.2631   -6.4250    0.1113   -6.4808    0.3362   -6.4835    0.3390  -88.9565  -50.5472
  9.150   -6.3485    0.2995   -6.6434    0.2040   -6.3270    0.2729   -6.3696    0.1125   -6.4318    0.3501   -6.4344    0.3529 -131.4927  -50.5955
  9.160   -6.2923    0.3134   -6.6030    0.2083   -6.2681    0.2838   -6.3119    0.1140   -6.3813    0.3654   -6.3839    0.3682 -187.9631  -50.6646
  9.170   -6.2340    0.3288   -6.5619    0.2128   -6.2067    0.2959   -6.2518    0.1157   -6.3292    0.3824   -6.3318    0.3851 -258.2944  -50.7595
  9.180   -6.1735    0.3461   -6.5200    0.2178   -6.1425    0.3094   -6.1889    0.1178   -6.2756    0.4011   -6.2782    0.4039 -339.3647  -50.8842
  9.190   -6.1106    0.3654   -6.4772    0.2232   -6.0752    0.3246   -6.1229    0.1202   -6.2201    0.4220   -6.2227    0.4247 -424.5764  -51.0402
  9.200   -6.0449    0.3870   -6.4335    0.2290   -6.0043    0.3415   -6.0533    0.1231   -6.1628    0.4453   -6.1653    0.4480 -504.7162  -51.2257
  9.210   -5.9763    0.4113   -6.3888    0.2352   -5.9295    0.3607   -5.9797    0.1265   -6.1033    0.4713   -6.1059    0.4740 -570.1369  -51.4352
  9.220   -5.9044    0.4388   -6.3429    0.2420   -5.8503    0.3824   -5.9016    0.1306   -6.0417    0.5005   -6.0442    0.5032 -613.4892  -51.6607
  9.230   -5.8290    0.4700   -6.2959    0.2493   -5.7660    0.4071   -5.8181    0.1354   -5.9776    0.5334   -5.9801    0.5361 -631.7235  -51.8928
  9.240   -5.7498    0.5055   -6.2475    0.2572   -5.6759    0.4354   -5.7287    0.1413   -5.9110    0.5707   -5.9135    0.5734 -626.3367  -52.1230
  9.250   -5.6662    0.5462   -6.1977    0.2658   -5.5792    0.4681   -5.6321    0.1484   -5.8417    0.6130   -5.8443    0.6157 -601.8196  -52.3442
  9.260   -5.5781    0.5929   -6.1463    0.2752   -5.4748    0.5060   -5.5274    0.1572   -5.7697    0.6613   -5.7722    0.6640 -563.3181  -52.5512
  9.270   -5.4850    0.6469   -6.0933    0.2853   -5.3617    0.5504   -5.4130    0.1681   -5.6948    0.7167   -5.6973    0.7194 -514.8999  -52.7404
  9.280   -5.3867    0.7095   -6.0384    0.2963   -5.2383    0.6027   -5.2872    0.1817   -5.6172    0.7806   -5.6197    0.7833 -459.2569  -52.9092
  9.290   -5.2828    0.7826   -5.9816    0.3083   -5.1027    0.6651   -5.1476    0.1990   -5.5370    0.8545   -5.5394    0.8572 -398.6381  -53.0557
  9.300   -5.1731    0.8682   -5.9226    0.3211   -4.9530    0.7403   -4.9914    0.2213   -5.4547    0.9405   -5.4571    0.9432 -336.0632  -53.1792
  9.310   -5.0577    0.9690   -5.8613    0.3348   -4.7864    0.8320   -4.8148    0.2503   -5.3710    1.0410   -5.3734    1.0437 -275.8820  -53.2806
  9.320   -4.9369    1.0881   -5.7974    0.3494   -4.5996    0.9454   -4.6131    0.2889   -5.2874    1.1589   -5.2897    1.1617 -223.3596  -53.3626
  9.330   -4.8114    1.2295   -5.7306    0.3646   -4.3887    1.0881   -4.3797    0.3411   -5.2059    1.2978   -5.2082    1.3006 -183.6600  -53.4301
  9.340   -4.6826    1.3976   -5.6606    0.3800   -4.1491    1.2710   -4.1061    0.4137   -5.1301    1.4618   -5.1322    1.4647 -160.8944  -53.4893
  9.350   -4.5524    1.5980   -5.5868    0.3949   -3.8754    1.5104   -3.7808    0.5171   -5.0650    1.6555   -5.0670    1.6586 -157.7330  -53.5472
  9.360   -4.4239    1.8374   -5.5083    0.4080   -3.5630    1.8320   -3.3882    0.6692   -5.0184    1.8842   -5.0203    1.8874 -175.7429  -53.6118
  9.370   -4.3005    2.1242   -5.4232    0.4172   -3.2101    2.2764   -2.9084    0.9012   -5.0017    2.1530   -5.0036    2.1565 -216.7262  -53.6915
  9.380   -4.1865    2.4710   -5.3281    0.4186   -2.8267    2.9103   -2.3180    1.2698   -5.0321    2.4664   -5.0339    2.4704 -286.4843  -53.7967
  9.390   -4.0882    2.9006   -5.2146    0.4065   -2.4583    3.8424   -1.6014    1.8813   -5.1362    2.8271   -5.1379    2.8318 -402.8907  -53.9448
  9.400   -4.0255    3.4589   -5.0640    0.3747   -2.2530    5.2372   -0.7960    2.9332   -5.3584    3.2297   -5.3604    3.2355 -604.7386  -54.1670
  9.410   -4.0789    4.2261   -4.8354    0.3272   -2.6241    7.2514   -0.1479    4.7434   -5.7752    3.6357   -5.7782    3.6430 -955.6338  -54.5182
  9.420   -4.5026    5.2385   -4.4642    0.3229   -4.4375    9.5955   -0.4644    7.4995   -6.4735    3.8924   -6.4789    3.9009 *********  -55.0787
  9.430   -5.6629    6.1243   -3.9664    0.5288   -8.1901   10.5878   -2.9283   10.1400   -7.3283    3.6853   -7.3376    3.6931 *********  -55.9340
  9.440   -7.2289    6.1329   -3.5820    1.0163  -11.7488    8.6297   -6.6541   10.4213   -7.8266    3.0024   -7.8384    3.0065 *********  -57.3346
  9.450   -8.3215    5.4008   -3.4408    1.5640  -12.9256    5.5307   -9.1006    8.7038   -7.8106    2.3590   -7.8218    2.3594 *********  -58.6108
  9.460   -8.8267    4.5752   -3.4165    2.0452  -12.5133    3.2132   -9.9759    6.8464   -7.5889    1.9823   -7.5986    1.9807 *********  -59.3696
  9.470   -9.0137    3.8995   -3.4196    2.4989  -11.6489    1.8277  -10.0948    5.5004   -7.3478    1.8006   -7.3560    1.7978 *********  -60.0871
  9.480   -9.0605    3.3784   -3.4452    2.9819  -10.7812    1.0440   -9.9706    4.6170   -7.1304    1.7396   -7.1372    1.7362 *********  -60.8668
  9.490   -9.0494    2.9745   -3.5279    3.5281  -10.0183    0.6157   -9.8150    4.0439   -6.9456    1.7680   -6.9514    1.7642 *********  -61.6948
  9.500   -9.0191    2.6539   -3.7233    4.1448   -9.3693    0.4089   -9.7082    3.6590   -6.8070    1.8741   -6.8116    1.8700 *********  -62.5142
  9.510   -8.9892    2.3886   -4.0990    4.8033   -8.8280    0.3553   -9.6774    3.3712   -6.7386    2.0460   -6.7422    2.0417 *********  -63.2720
  9.520   -8.9674    2.1535   -4.7145    5.4234   -8.3964    0.4150   -9.7203    3.1073   -6.7704    2.2568   -6.7730    2.2525 *********  -63.9473
  9.530   -8.9496    1.9278   -5.5778    5.8739   -8.0854    0.5512   -9.8066    2.8102   -6.9217    2.4561   -6.9232    2.4520 *********  -64.5490
  9.540   -8.9224    1.7001   -6.6012    6.0182   -7.9010    0.7169   -9.8830    2.4533   -7.1783    2.5800   -7.1788    2.5763 *********  -65.0958
  9.550   -8.8709    1.4728   -7.6112    5.7979   -7.8273    0.8610   -9.8956    2.0515   -7.4851    2.5818   -7.4847    2.5787 *********  -65.6022
  9.560   -8.7884    1.2589   -8.4357    5.2792   -7.8258    0.9490   -9.8187    1.6498   -7.7707    2.4604   -7.7698    2.4582 *********  -66.0742
  9.570   -8.6802    1.0708   -8.9909    4.6056   -7.8524    0.9747   -9.6639    1.2925   -7.9855    2.2548   -7.9842    2.2534 *********  -66.5122
  9.580   -8.5573    0.9145   -9.2896    3.9119   -7.8762    0.9518   -9.4618    1.0019   -8.1156    2.0139   -8.1142    2.0132 *********  -66.9125
  9.590   -8.4301    0.7885   -9.3942    3.2802   -7.8836    0.9000   -9.2424    0.7786   -8.1721    1.7745   -8.1708    1.7744 -971.3734  -67.2695
  9.600   -8.3058    0.6882   -9.3722    2.7421   -7.8720    0.8350   -9.0258    0.6123   -8.1747    1.5561   -8.1736    1.5565 -837.7627  -67.5773
  9.610   -8.1879    0.6083   -9.2764    2.2997   -7.8444    0.7673   -8.8224    0.4899   -8.1418    1.3658   -8.1409    1.3666 -693.2335  -67.8321
  9.620   -8.0778    0.5439   -9.1423    1.9415   -7.8051    0.7021   -8.6363    0.3999   -8.0873    1.2036   -8.0866    1.2048 -546.7641  -68.0330
  9.630   -7.9757    0.4914   -8.9917    1.6529   -7.7580    0.6422   -8.4681    0.3331   -8.0207    1.0668   -8.0202    1.0682 -408.9014  -68.1833
  9.640   -7.8811    0.4479   -8.8373    1.4201   -7.7060    0.5883   -8.3166    0.2831   -7.9482    0.9516   -7.9479    0.9531 -288.8039  -68.2894
  9.650   -7.7933    0.4115   -8.6860    1.2312   -7.6515    0.5405   -8.1800    0.2452   -7.8735    0.8544   -7.8733    0.8560 -192.0677  -68.3600
  9.660   -7.7117    0.3806   -8.5413    1.0770   -7.5959    0.4981   -8.0565    0.2160   -7.7990    0.7720   -7.7990    0.7737 -120.0079  -68.4041
  9.670   -7.6356    0.3540   -8.4049    0.9500   -7.5402    0.4608   -7.9444    0.1932   -7.7259    0.7018   -7.7260    0.7036  -70.3332  -68.4299
  9.680   -7.5643    0.3310   -8.2772    0.8446   -7.4852    0.4279   -7.8420    0.1752   -7.6551    0.6416   -7.6553    0.6434  -38.6175  -68.4441
  9.690   -7.4972    0.3108   -8.1580    0.7564   -7.4311    0.3988   -7.7481    0.1608   -7.5869    0.5896   -7.5872    0.5915  -19.8471  -68.4514
  9.700   -7.4340    0.2930   -8.0470    0.6820   -7.3784    0.3730   -7.6615    0.1491   -7.5214    0.5445   -7.5218    0.5464   -9.5415  -68.4549
  9.710   -7.3742    0.2773   -7.9435    0.6188   -7.3271    0.3500   -7.5813    0.1395   -7.4586    0.5051   -7.4591    0.5071   -4.2888  -68.4565
  9.720   -7.3174    0.2632   -7.8470    0.5647   -7.2773    0.3296   -7.5067    0.1315   -7.3985    0.4705   -7.3990    0.4725   -1.8018  -68.4572
  9.730   -7.2633    0.2505   -7.7567    0.5181   -7.2290    0.3113   -7.4369    0.1249   -7.3409    0.4400   -7.3415    0.4420   -0.7073  -68.4574
  9.740   -7.2117    0.2391   -7.6721    0.4777   -7.1822    0.2948   -7.3713    0.1192   -7.2858    0.4129   -7.2864    0.4149   -0.2594  -68.4575
  9.750   -7.1624    0.2287   -7.5928    0.4425   -7.1368    0.2800   -7.3096    0.1144   -7.2329    0.3888   -7.2336    0.3907   -0.0889  -68.4576
  9.760   -7.1151    0.2193   -7.5181    0.4116   -7.0928    0.2666   -7.2513    0.1103   -7.1821    0.3671   -7.1828    0.3691   -0.0284  -68.4576
  9.770   -7.0696    0.2107   -7.4476    0.3844   -7.0501    0.2544   -7.1960    0.1067   -7.1332    0.3477   -7.1340    0.3497   -0.0085  -68.4576
  9.780   -7.0258    0.2028   -7.3809    0.3603   -7.0087    0.2434   -7.1433    0.1035   -7.0862    0.3301   -7.0870    0.3321   -0.0024  -68.4576
  9.790   -6.9836    0.1956   -7.3178    0.3389   -6.9685    0.2333   -7.0931    0.1007   -7.0409    0.3142   -7.0418    0.3162   -0.0006  -68.4576
  9.800   -6.9428    0.1889   -7.2577    0.3197   -6.9295    0.2241   -7.0451    0.0983   -6.9972    0.2998   -6.9981    0.3018   -0.0002  -68.4576
  9.810   -6.9033    0.1827   -7.2006    0.3025   -6.8915    0.2156   -6.9991    0.0961   -6.9549    0.2866   -6.9558    0.2886   -0.0000  -68.4576
  9.820   -6.8650    0.1770   -7.1461    0.2871   -6.8545    0.2078   -6.9550    0.0941   -6.9141    0.2746   -6.9150    0.2765   -0.0000  -68.4576
  9.830   -6.8279    0.1717   -7.0939    0.2731   -6.8185    0.2006   -6.9124    0.0923   -6.8745    0.2635   -6.8754    0.2655   -0.0000  -68.4576
  9.840   -6.7918    0.1668   -7.0440    0.2604   -6.7834    0.1940   -6.8714    0.0907   -6.8360    0.2534   -6.8370    0.2553   -0.0000  -68.4576
  9.850   -6.7568    0.1621   -6.9961    0.2489   -6.7492    0.1878   -6.8318    0.0892   -6.7987    0.2440   -6.7997    0.2460   -0.0000  -68.4576
  9.860   -6.7226    0.1578   -6.9500    0.2384   -6.7157    0.1821   -6.7935    0.0878   -6.7625    0.2353   -6.7635    0.2373   -0.0000  -68.4576
  9.870   -6.6893    0.1538   -6.9056    0.2288   -6.6831    0.1768   -6.7564    0.0866   -6.7272    0.2273   -6.7282    0.2293   -0.0000  -68.4576
  9.880   -6.6567    0.1500   -6.8628    0.2200   -6.6511    0.1719   -6.7204    0.0854   -6.6928    0.2199   -6.6938    0.2218   -0.0000  -68.4576
  9.890   -6.6250    0.1464   -6.8215    0.2119   -6.6199    0.1673   -6.6853    0.0843   -6.6593    0.2129   -6.6603    0.2149   -0.0000  -68.4576
  9.900   -6.5939    0.1431   -6.7815    0.2044   -6.5893    0.1629   -6.6513    0.0833   -6.6266    0.2065   -6.6276    0.2084   -0.0000  -68.4576
  9.910   -6.5635    0.1399   -6.7428    0.1975   -6.5593    0.1589   -6.6181    0.0824   -6.5947    0.2005   -6.5957    0.2024   -0.0000  -68.4576
  9.920   -6.5338    0.1369   -6.7052    0.1911   -6.5299    0.1551   -6.5858    0.0815   -6.5634    0.1948   -6.5645    0.1967   -0.0000  -68.4576
  9.930   -6.5046    0.1341   -6.6688    0.1852   -6.5010    0.1515   -6.5542    0.0807   -6.5329    0.1895   -6.5339    0.1914   -0.0000  -68.4576
  9.940   -6.4760    0.1314   -6.6333    0.1796   -6.4727    0.1481   -6.5234    0.0799   -6.5030    0.1846   -6.5040    0.1865   -0.0000  -68.4576
  9.950   -6.4479    0.1289   -6.5988    0.1745   -6.4449    0.1450   -6.4932    0.0792   -6.4736    0.1799   -6.4747    0.1818   -0.0000  -68.4576
  9.960   -6.4204    0.1265   -6.5652    0.1697   -6.4176    0.1420   -6.4637    0.0785   -6.4449    0.1755   -6.4460    0.1774   -0.0000  -68.4576
  9.970   -6.3933    0.1242   -6.5324    0.1652   -6.3907    0.1391   -6.4348    0.0778   -6.4167    0.1713   -6.4178    0.1732   -0.0000  -68.4576
  9.980   -6.3666    0.1220   -6.5005    0.1610   -6.3643    0.1364   -6.4065    0.0771   -6.3890    0.1674   -6.3901    0.1693   -0.0000  -68.4576
  9.990   -6.3405    0.1199   -6.4692    0.1570   -6.3383    0.1339   -6.3787    0.0765   -6.3618    0.1637   -6.3629    0.1656   -0.0000  -68.4576
 10.000   -6.3147    0.1180   -6.4387    0.1533   -6.3127    0.1315   -6.3514    0.0759   -6.3351    0.1602   -6.3362    0.1621   -0.0000  -68.4576
